Temperature as a function of time and angular position 

Angular position
   theta1_[rad]   ..........   theta59_[rad]
              0.00000    2.30770    4.61537    6.92308    9.23076   11.53846   13.84615   16.15385   18.46154   20.76922   23.07693   25.38459   27.69235   29.99999   32.30761   34.61535   36.92316   39.23071   41.53852   43.84614   46.15391   48.46158   50.76920   53.07696   55.38465   57.69245   59.99996   62.30765   64.61545   66.92302   69.23081   71.53845   73.84626   76.15380   78.46165   80.76921   83.07696   85.38453   87.69242   90.00000   91.80880   93.61377   95.41182   97.19925   98.97270  100.72877  102.46490  104.17809  105.86579  107.52549  109.15559  110.75410  112.31952  113.85041  115.34617  116.80583  118.22886  119.61477  120.96376

Time and temperatures for the above positions
  time_[s]   T(theta1)_[K]      ..........  T(theta59)_[K]
   0.00000  302.85000  302.85000  302.85000  302.85000  302.85000  302.85000  302.85000  302.85000  302.85000  302.85000  302.85000  302.85000  302.85000  302.85000  302.85000  302.85000  302.85000  302.85000  302.85000  302.85000  302.85000  302.85000  302.85000  302.85000  302.85000  302.85000  302.85000  302.85000  302.85000  302.85000  302.85000  302.85000  302.85000  302.85000  302.85000  302.85000  302.85000  302.85000  302.85000  302.85000  302.85000  302.85000  302.85000  302.85000  302.85000  302.85000  302.85000  302.85000  302.85000  302.85000  302.85000  302.85000  302.85000  302.85000  302.85000  302.85000  302.85000  302.85000  302.85000
   0.10000  544.31808  539.57029  532.47522  522.90954  507.92090  493.66998  496.87270  510.40841  520.49585  525.29210  525.24140  524.62942  522.56024  520.33851  518.32474  516.21074  514.34849  512.61305  510.62833  508.81720  506.13317  503.75512  501.43522  498.34242  495.67749  493.19251  490.55989  487.44318  485.00705  483.03798  480.92465  479.05926  477.25818  475.10018  472.79034  471.05711  469.84418  468.26043  466.11966  464.86521  464.79771  464.01107  463.25786  462.58962  462.30038  462.13344  462.32263  462.78555  463.34890  464.07233  464.94230  466.60997  469.17396  471.87522  474.99341  478.55556  477.88620  472.36094  468.93125
   0.20000  616.01582  610.20992  601.63121  589.77898  571.02407  552.86437  557.97718  575.06196  586.11293  591.25968  591.06167  590.09597  586.59924  583.01563  580.07101  576.88804  573.94092  571.00412  567.52967  564.26022  560.17096  556.44905  552.57341  547.77944  543.44073  539.75321  535.66322  530.87486  527.15692  524.00261  520.73622  517.59818  514.69602  511.31719  507.65800  504.40590  501.81585  498.84520  495.24895  492.61537  491.42560  489.54443  487.84595  486.29076  485.22887  484.32820  483.84606  483.66340  483.60529  483.76218  484.08203  485.35599  487.65973  490.10058  493.02103  496.50815  495.26409  488.67747  484.44698
   0.30000  669.75439  663.18042  653.51341  639.96898  618.40890  597.33420  603.90255  623.67631  635.47342  640.90537  640.61775  639.40663  634.85487  630.26462  626.63736  622.66677  618.91914  615.09302  610.51051  606.15569  601.02011  596.29732  591.25956  585.19238  579.60006  575.01474  569.83308  563.78973  559.11131  555.06895  550.93817  546.84429  543.11574  538.81890  534.14340  529.74540  526.11637  522.09855  517.40222  513.72592  511.68817  508.97957  506.56673  504.34113  502.69545  501.24025  500.25077  499.58007  499.05199  498.78049  498.68422  499.66112  501.76946  504.01466  506.78715  510.21990  508.53966  501.14477  496.30476
   0.40000  714.01358  706.82749  696.28358  681.36315  657.50729  634.04385  641.83061  663.84279  676.27414  681.95951  681.61524  680.21829  674.80998  669.40235  665.22534  660.61733  656.22091  651.67162  646.18364  640.94130  634.94982  629.40805  623.41652  616.30233  609.67841  604.35668  598.27657  591.19800  585.72884  580.95543  576.11272  571.23004  566.82006  561.76481  556.24822  550.90035  546.41004  541.52349  535.91364  531.37111  528.62937  525.23349  522.22752  519.44514  517.31482  515.39917  513.98844  512.91237  511.99380  511.36641  510.92428  511.65495  513.60215  515.68585  518.33672  521.72629  519.68234  511.61117  506.26142
   0.50000  752.10962  744.41422  733.13223  717.04266  691.22325  665.71413  674.56658  698.52599  711.52031  717.43985  717.06169  715.51890  709.38406  703.28306  698.64371  693.49687  688.55116  683.38750  677.12641  671.12577  664.40271  658.16075  651.35127  643.33736  635.82634  629.87346  623.02065  615.04973  608.90030  603.49804  598.04259  592.47970  587.48254  581.77251  575.52855  569.35783  564.12140  558.48170  552.07904  546.78449  543.43200  539.43954  535.91890  532.65331  530.10256  527.78734  526.01110  524.58317  523.32556  522.38919  521.64669  522.16408  523.97241  525.91683  528.46329  531.81713  529.45623  520.79370  514.99846
   0.60000  785.75948  777.62973  765.71056  748.60179  721.05909  693.75229  703.56106  729.25863  742.76536  748.90600  748.51114  746.85211  740.08515  733.38079  728.34277  722.72878  717.30612  711.60708  704.66874  698.00341  690.63882  683.78267  676.25346  667.44626  659.15251  652.64462  645.10998  636.34975  629.59987  623.64257  617.64603  611.48126  605.96496  599.67488  592.78544  585.88329  579.98363  573.67392  566.56523  560.60075  556.70453  552.18070  548.20182  544.50589  541.58089  538.90989  536.80822  535.06692  533.50722  532.29561  531.28542  531.61326  533.29884  535.12003  537.57453  540.89814  538.25382  529.06067  522.86592
   0.70000  815.99285  807.48680  795.00843  776.99607  747.91507  719.00143  729.68299  756.95866  770.93947  777.29164  776.89376  775.14170  767.81552  760.57735  755.18996  749.16428  743.32060  737.14719  729.60554  722.34768  714.41099  707.00699  698.83369  689.31510  680.31892  673.31473  665.16814  655.69785  648.40890  641.95338  635.47088  628.76446  622.78134  615.96865  608.49661  600.93314  594.43381  587.51784  579.76964  573.19812  568.80956  563.80432  559.41044  555.32472  552.06085  549.06765  546.67128  544.64610  542.81266  541.35167  540.09883  540.25534  541.83057  543.54088  545.91305  549.21075  546.30865  536.63120  530.07201
   0.80000  843.48715  834.65157  821.67673  802.85372  772.38292  742.01564  753.50328  782.22909  796.65353  803.20990  802.82026  800.99406  793.16736  785.45135  779.75440  773.36172  767.14208  760.54344  752.45796  744.66562  736.21266  728.31414  719.55754  709.39332  699.75919  692.30587  683.60347  673.48667  665.70797  658.79986  651.87567  644.67590  638.26798  630.97872  622.97448  614.80585  607.75777  600.28656  591.95208  584.82383  579.98405  574.53739  569.76313  565.32006  561.74568  558.45714  555.79067  553.50522  551.42072  549.73103  548.25559  548.25537  549.73024  551.33961  553.63718  556.91250  553.77312  543.64828  536.75260
   0.90000  868.71744  859.59111  846.17180  826.61505  794.87731  763.18312  775.42187  805.49223  820.33535  827.09002  826.71810  824.83356  816.55500  808.40760  802.43413  795.71156  789.15338  782.17028  773.59026  765.31155  756.38860  748.03977  738.75022  727.99482  717.77609  709.91275  700.70100  689.99028  681.76265  674.43973  667.11050  659.45738  652.65942  644.93170  636.43691  627.70951  620.15474  612.17045  603.29361  595.65017  590.39313  584.53806  579.41200  574.63838  570.77688  567.21520  564.29895  561.77274  559.45590  557.55461  555.87312  555.72826  557.11103  558.62769  560.85711  564.11304  560.75324  550.21136  543.00220
   1.00000  892.03301  882.64875  868.82897  848.60360  815.70286  782.78898  795.73243  827.05816  842.29892  849.24700  848.90094  846.97152  838.28237  829.74294  823.52102  816.50006  809.63509  802.30212  793.26934  784.54504  775.19133  766.42969  756.64984  745.34938  734.59127  726.35105  716.66933  705.40921  696.76723  689.06152  681.35831  673.28569  666.12716  657.99323  649.04316  639.79620  631.77033  623.30859  613.92653  605.80299  600.15741  593.92182  588.46815  583.38661  579.25779  575.44174  572.29290  569.54240  567.00906  564.91063  563.03709  562.75780  564.05551  565.48645  567.65320  570.89230  567.32634  556.39299  548.88972
   1.10000  913.70008  904.08615  889.90377  869.06583  835.09159  801.05034  814.65855  847.16289  862.78324  869.92056  869.60740  867.64478  858.58061  849.68310  843.23697  835.94479  828.80045  821.14746  811.69797  802.56327  792.81266  783.67056  773.43721  761.63146  750.37295  741.78446  731.66671  719.89558  710.86910  702.80821  694.75781  686.29490  678.80121  670.28888  660.91390  651.18119  642.71485  633.80636  623.95104  615.37763  609.36823  602.77614  597.01566  591.64571  587.26663  583.21237  579.84575  576.88517  574.14896  571.86583  569.81229  569.40741  570.62612  571.97740  574.08623  577.31075  573.55089  562.24800  554.46725
   1.20000  933.92752  924.10850  909.59657  888.19497  853.22536  818.13737  832.37543  865.99133  881.97549  889.29843  889.02435  887.03871  877.63063  868.40474  861.75560  854.21599  846.81627  838.86938  829.03471  819.52039  809.40250  799.90825  789.25360  776.97735  765.25252  756.34082  745.81675  733.56817  724.18329  715.79141  707.41727  698.58961  690.78299  681.91660  672.14328  661.95436  653.07433  643.74592  633.44528  624.44838  618.09677  611.16918  605.12008  599.47877  594.86434  590.58600  587.01454  583.85629  580.92914  578.47220  576.24920  575.72644  576.87150  578.14841  580.20349  583.41543  579.47237  567.81906  559.77534
   1.30000  952.88300  942.88056  928.06817  906.14608  870.25011  834.18658  849.02361  883.69177  900.02577  907.53109  907.30153  905.30188  895.57738  886.04935  879.21596  871.44996  863.81608  855.59840  845.40646  835.53975  825.08081  815.25945  804.21200  791.49603  779.33506  770.12232  759.21823  746.52191  736.80175  728.10028  719.42317  710.25337  702.15353  692.95462  682.80646  672.18746  662.91745  653.19283  642.47157  633.07453  626.39982  619.15531  612.83368  606.93609  602.09949  597.60959  593.84474  590.49982  587.39227  584.77116  582.38802  581.75423  582.83037  584.03762  586.04266  589.24383  585.12702  573.14015  564.84626
   1.40000  970.70379  960.53713  945.45018  923.04601  886.28519  849.30959  864.71798  900.38543  917.05675  924.74154  924.56131  922.55567  912.53927  902.73253  895.73160  887.75799  879.90889  871.44106  860.91677  850.72201  839.94543  829.81937  818.40456  805.27638  792.70624  783.21228  771.95166  758.83415  748.79939  739.80746  730.84596  721.35425  712.97879  703.46661  692.96463  681.93889  672.30008  662.20047  651.08065  641.30433  634.32360  626.77874  620.19897  614.05859  609.01162  604.32133  600.37333  596.85155  593.57305  590.79638  588.26144  587.52274  588.53420  589.67602  591.63436  594.82639  590.54427  578.23888  569.70622
   1.50000  987.50406  977.19038  961.85203  939.00027  901.42984  863.59921  879.55404  916.17305  933.17036  941.03195  940.90534  938.90088  928.61461  918.55020  911.39678  903.23244  895.18516  886.48576  875.65154  865.15064  854.07750  843.66690  831.90767  818.39206  805.43703  795.67972  784.08377  770.56898  760.23824  750.97312  741.74397  731.94856  723.31337  713.50529  702.66844  691.25700  681.26847  670.81297  659.31448  649.17766  641.90630  634.07606  627.25110  620.88007  615.63336  610.75276  606.63085  602.94108  599.50011  596.57565  593.89643  593.05836  594.00899  595.08920  597.00386  600.18824  595.74843  583.13802  574.37686
   1.60000 1003.38014  992.93486  977.36600  954.09778  915.76770  877.13365  893.61228  931.13951  948.45249  956.48836  956.41922  954.42237  943.88617  933.58313  926.29082  917.95103  909.72101  900.80685  889.68303  878.89583  867.54526  856.86841  844.78555  830.90498  817.58709  807.58265  795.67058  781.78023  771.17040  761.64776  752.16616  742.08361  733.20310  723.11489  711.96035  700.18232  689.86140  679.06735  667.20823  656.72797  649.17996  641.07789  634.01953  627.42889  621.99209  616.93033  612.64290  608.79318  605.19748  602.13228  599.31560  598.38319  599.27649  600.29856  602.17231  605.35042  600.75981  587.85664  578.87628
   1.70000 1018.41425 1007.85131  992.07086  968.41444  929.37014  889.97964  906.96133  945.35720  962.97634  971.18415  971.17590  969.19250  958.42447  947.90014  940.48129  931.97996  923.58124  914.46764  903.07274  892.01735  880.40678  869.48034  857.09283  842.86781  829.20717  818.97040  806.75974  792.51364  781.64018  771.87432  762.15415  751.79958  742.68693  732.33298  720.87648  708.74929  698.11181  686.99505  674.79178  663.98366  656.17176  647.81027  640.52926  633.72908  628.11102  622.87647  618.43118  614.42887  610.68549  607.48601  604.53813  603.51597  604.35515  605.32228  607.15764  610.33075  605.59566  592.41089  583.21983
   1.80000 1032.67730 1022.00934 1006.03450  982.01566  942.29870  902.19469  919.66034  958.88849  976.80501  985.18253  985.23823  983.27354  972.29027  961.56046  954.02637  945.37620  936.82163  927.52262  915.87360  904.56659  892.71199  881.55125  868.87649  854.32582  840.34088  829.88534  817.39221  802.80854  791.68563  781.68968  771.74369  761.13097  751.79829  741.19183  729.44779  716.98746  706.04795  694.62304  682.09076  670.96908  662.90502  654.29550  646.80172  639.80126  634.01006  628.61041  624.01431  619.86616  615.98160  612.65377  609.58042  608.47275  609.26077  610.17591  611.97522  615.14451  610.27073  596.81462  587.42064
   1.90000 1046.23102 1035.46953 1019.31602  994.95839  954.60689  913.82881  931.76079  971.78762  989.99334  998.53844  998.66086  996.71966  985.53633  974.61559  966.97660  958.18926  949.49063  940.01909  928.13155  916.58819  904.50426  893.12330  880.17729  865.31830  851.02606  840.36427  827.60349  812.69904  801.33973  791.12582  780.96576  770.10770  760.56616  749.71939  737.70112  724.92244  713.69432  701.97468  689.12736  677.70533  669.39993  660.55289  652.85547  645.66328  639.70642  634.14878  629.40838  625.12064  621.10090  617.65019  614.45667  613.26742  614.00702  614.87288  616.63831  619.80488  614.79778  601.07977  591.49006
   2.00000 1059.12956 1048.28506 1031.96727 1007.29256  966.34167  924.92589  943.30777  984.10215 1002.58943 1011.30005 1011.49165 1009.57831  998.20892  987.11062  979.37626  970.46249  961.63067  951.99848  939.88684  928.12121  915.82153  904.23334  891.03091  875.87963  861.29580  850.43935  837.42466  822.21493  810.63133  800.21067  789.84745  778.75591  769.01584  757.94008  745.65991  732.57659  721.07229  709.07036  695.92096  684.21080  675.67410  666.59930  658.70668  651.33071  645.21514  639.50608  634.62743  630.20589  626.05653  622.48804  619.17927  617.91207  618.60580  619.42491  621.15848  624.32338  619.18790  605.21676  595.43797
   3.00000 1160.50904 1149.25409 1131.87933 1104.93019 1059.45141 1013.17940 1035.34954 1082.48464 1103.44705 1113.70991 1114.68296 1113.21847 1100.56912 1088.25147 1079.95634 1070.22426 1060.51290 1049.77075 1036.02296 1022.62704 1008.74161  995.62900  980.48826  963.09264  946.25957  933.94638  918.97548  901.37299  888.06076  876.04970  864.11849  851.19764  839.91343  827.03038  812.65821  797.11376  783.37923  769.08678  753.47035  739.40265  728.98267  718.04765  708.56573  699.69181  692.28715  685.34668  679.34479  673.83412  668.62748  664.09973  659.85008  657.96018  658.30563  658.76705  660.26986  663.46391  657.25798  641.12995  629.74553
   4.00000 1228.19436 1216.98218 1199.21018 1171.03121 1122.77423 1073.47015 1098.50872 1150.29272 1173.26447 1184.90789 1186.73051 1185.88486 1172.63763 1159.75525 1151.35366 1141.32609 1131.26854 1120.00742 1105.35270 1091.04274 1076.26436 1062.29261 1045.97922 1027.17347 1008.91249  995.74385  979.53680  960.36061  945.95693  932.94729  920.02434  905.90461  893.62658  879.54026  863.73713  846.46764  831.17181  815.25957  797.87496  782.11101  770.35071  758.08348  747.47112  737.52997  729.21414  721.40107  714.60541  708.32202  702.36220  697.15365  692.23283  689.92083  690.06005  690.30509  691.69088  694.97503  687.97083  670.16141  657.53388
   5.00000 1275.44382 1264.48321 1246.65178 1217.82024 1167.80049 1116.53327 1143.82142 1199.15491 1223.79370 1236.65824 1239.32144 1239.15095 1225.68544 1212.60407 1204.33851 1194.30386 1184.19784 1172.75479 1157.62090 1142.81941 1127.55857 1113.12334 1096.09996 1076.39353 1057.20865 1043.54944 1026.54997 1006.31008  991.20960  977.56862  964.01288  949.09009  936.16371  921.25602  904.44252  885.91899  869.49052  852.38963  833.68759  816.65472  803.90503  790.64756  779.20228  768.47363  759.49236  751.04042  743.66598  736.81669  730.30284  724.59616  719.18140  716.57947  716.60648  716.72893  718.07364  721.48941  713.86697  694.68932  681.05783
   6.00000 1309.29823 1298.67730 1280.96146 1251.81326 1200.66141 1148.10269 1177.18770 1235.29314 1261.32747 1275.26449 1278.72174 1279.22498 1265.76131 1252.69380 1244.69483 1234.81688 1224.83450 1213.41060 1198.06348 1183.03499 1167.54998 1152.90128 1135.46678 1115.19351 1095.41696 1081.50357 1064.00537 1043.04418 1027.50960 1013.48211  999.53401  984.07628  970.73519  955.26709  937.73313  918.28289  901.02012  883.03192  863.32901  845.32808  831.83587  817.82947  805.76130  794.44303  784.97030  776.04535  768.24493  760.97714  754.05148  747.97738  742.19576  739.39868  739.38093  739.44826  740.80668  744.38416  736.27408  715.95538  701.49365
   7.00000 1333.97461 1323.71798 1306.20322 1276.93677 1225.05844 1171.64615 1202.18178 1262.48265 1289.68975 1304.56267 1308.74970 1309.89487 1296.56014 1283.62993 1275.96320 1266.33272 1256.57193 1245.28746 1229.89595 1214.80985 1199.26708 1184.56675 1166.92037 1146.30687 1126.16577 1112.15594 1094.36057 1072.91735 1057.13001 1042.88528 1028.71195 1012.90832  999.31681  983.47422  965.42865  945.28993  927.41030  908.75555  888.28512  869.53850  855.48598  840.90938  828.37389  816.61295  806.77797  797.50355  789.39117  781.81512  774.58439  768.24108  762.18839  759.26743  759.25542  759.31844  760.73178  764.49340  755.99564  734.71042  719.55199
   8.00000 1352.18120 1342.27982 1325.00081 1295.73209 1243.39310 1189.41879 1221.13329 1283.18942 1311.38358 1327.06871 1331.91442 1333.65427 1320.51860 1307.79409 1300.48608 1291.14889 1281.66172 1270.58623 1255.25729 1240.22211 1224.72893 1210.08193 1192.35811 1171.56088 1151.21337 1137.21332 1119.26165 1097.50738 1081.59477 1067.25192 1052.97175 1036.95850 1023.23452 1007.15308  988.75033  968.10152  949.76806  930.61328  909.55259  890.22977  875.75548  860.74512  847.86105  835.76986  825.67153  816.14243  807.80571  800.00646  792.55321  786.01682  779.76755  776.77788  776.81042  776.90835  778.40842  782.37106  773.56485  751.45228  735.70368
   9.00000 1365.73677 1356.16457 1339.12703 1309.92136 1257.29740 1202.95737 1235.63403 1299.10282 1328.12800 1344.51471 1349.94735 1352.22790 1339.32569 1326.84058 1319.89380 1310.86755 1301.67685 1290.84716 1275.64694 1260.73079 1245.35521 1230.82846 1213.11781 1192.24549 1171.80247 1157.88333 1139.87441 1117.93273 1101.98505 1087.62840 1073.32583 1057.20232 1043.43136 1027.21135 1008.56747  987.54456  968.88173  949.35492  927.84135  908.07413  893.28548  877.94761  864.80737  852.47365  842.18908  832.47948  823.98712  816.03156  808.42098  801.75170  795.36498  792.35010  792.45744  792.62110  794.23272  798.40911  789.35872  766.53276  750.28120
  10.00000 1376.32676 1367.04689 1350.22890 1321.09170 1268.25145 1213.65007 1247.06732 1311.68605 1341.46212 1358.52192 1364.51008 1367.28315 1354.63598 1342.40746 1335.81116 1327.09709 1318.20666 1307.63566 1292.60455 1277.84542 1262.62292 1248.25220 1230.61316 1209.73905 1189.27547 1175.47664 1157.47561 1135.43413 1119.50925 1105.19036 1090.91238 1074.74104 1060.97049 1044.66839 1025.85286 1004.54672  985.63542  965.81807  943.94171  923.81685  908.78370  893.19104  879.85684  867.34035  856.92143  847.08266  838.48201  830.41696  822.69581  815.93659  809.45527  806.44274  806.63906  806.88282  808.61335  812.99516  803.73854  780.28616  763.59284
  11.00000 1386.27613 1377.22385 1360.52946 1331.29991 1278.04203 1223.12113 1256.77949 1322.30574 1353.02386 1371.10140 1377.80852 1381.05485 1368.72978 1356.79701 1350.53641 1342.13368 1333.53564 1323.21399 1308.39497 1293.80922 1278.73737 1264.52411 1247.00179 1226.18656 1205.76076 1192.07755 1174.12347 1152.05831 1136.18032 1121.90527 1107.62517 1091.41176 1077.60783 1061.18129 1042.16422 1020.59326 1001.43478  981.31342  959.07213  938.58797  923.30481  907.47348  893.95295  881.26409  870.71608  860.76152  852.06331  843.90270  836.09118  829.25862  822.70268  819.68213  819.92871  820.21198  822.00117  826.47950  816.97528  792.94881  775.81853
  12.00000 1395.77564 1386.88840 1370.22392 1340.74275 1286.86382 1231.56095 1264.96715 1331.16504 1363.01890 1382.45959 1390.04755 1393.74931 1381.81298 1370.21454 1364.27378 1356.18079 1347.86622 1337.78308 1323.21620 1308.81771 1293.89139 1279.83384 1262.46924 1241.76857 1221.43368 1207.85727 1189.98352 1167.96530 1152.15327 1137.92348 1123.61095 1107.35708 1093.48286 1076.88655 1057.63482 1035.81295 1016.40430  995.96110  973.34820  952.49834  936.95546  920.89707  907.19339  894.33806  883.66183  873.60060  864.81142  856.56514  848.67951  841.78660  835.17247  832.13034  832.38550  832.66466  834.44919  838.91208  829.11521  804.56311  786.99762
  13.00000 1404.83657 1396.06034 1379.34712 1349.48242 1294.81546 1239.08287 1271.80864 1338.46200 1371.60878 1392.69998 1401.29926 1405.43801 1393.94728 1382.71599 1377.07891 1369.29307 1361.25317 1351.39853 1337.11740 1322.91822 1308.13309 1294.22920 1277.05732 1256.51896 1236.32052 1222.84225 1205.07637 1183.16628 1167.43578 1153.25181 1138.88163 1122.58970 1108.61507 1091.81291 1072.30163 1050.24423 1030.58577 1009.80872  986.82215  965.60436  949.79559  933.52183  919.63864  906.62248  895.81885  885.65874  876.78399  868.46027  860.51429  853.57188  846.91352  843.83743  844.06419  844.30053  846.02449  850.37360  840.24588  815.21305  797.21647
  14.00000 1413.47058 1404.75923 1387.93231 1357.57709 1301.98842 1245.79179 1277.46893 1344.38020 1378.94362 1401.91946 1411.63203 1416.18881 1405.19150 1394.35483 1389.00512 1381.52289 1373.74896 1364.11354 1350.14593 1336.15637 1321.50875 1307.75625 1290.80658 1270.47098 1250.44759 1237.05898 1219.42324 1197.67371 1182.03710 1167.89877 1153.45032 1137.12344 1123.02441 1105.98869 1086.20045 1063.92409 1044.01920 1022.90158  999.54347  977.95926  961.88168  945.40428  931.34570  918.17408  907.24384  896.99145  888.03549  879.64105  871.64618  864.66323  857.97231  854.85099  855.01670  855.17609  856.79040  860.94004  850.44954  824.97752  806.55606
  15.00000 1421.68974 1413.00430 1396.01117 1365.08115 1308.46737 1251.78462 1282.10035 1349.08940 1385.16265 1410.20865 1421.11068 1426.06614 1415.60169 1405.18212 1400.10337 1392.92037 1385.40381 1375.97902 1362.34728 1348.57607 1334.06292 1320.45933 1303.75631 1283.65725 1263.84116 1250.53398 1233.04581 1211.50126 1195.96798 1181.87438 1167.33126 1150.97309 1136.73123 1119.44184 1099.36594 1076.88816 1056.74292 1035.28274 1011.55900  989.61327  973.26687  956.59761  942.36814  929.04627  917.99019  907.65108  898.61734  890.15755  882.12313  875.10687  868.39295  865.21620  865.29223  865.34474  866.80668  870.68281  859.80336  833.93051  815.09228
  16.00000 1429.50640 1420.81452 1403.61391 1372.04533 1314.33051 1257.15063 1285.84311 1352.74619 1390.39477 1417.65217 1429.79661 1435.13110 1425.23119 1415.24659 1410.42241 1403.53345 1396.26578 1387.04364 1373.76523 1360.21960 1345.83844 1332.38114 1315.94462 1296.10976 1276.52741 1263.29371 1245.96621 1224.66366 1209.24050 1195.19009 1180.53969 1164.15432 1149.75620 1132.19982 1111.83159 1089.17075 1068.79359 1046.99315 1022.91304 1000.61372  984.00114  967.15176  952.75633  939.28922  928.10814  917.68690  908.57798  900.05701  891.99051  884.94656  878.21731  874.97589  874.93732  874.85696  876.12964  879.66896  868.37966  842.14132  822.89608
  17.00000 1436.93318 1428.20850 1410.76931 1378.51688 1319.64992 1261.97186 1288.82601 1355.49470 1394.75904 1424.32892 1437.74789 1443.44157 1434.13074 1424.59470 1420.00880 1413.40798 1406.38082 1397.35391 1384.44181 1371.12760 1356.87646 1343.56273 1327.40838 1307.85983 1288.53238 1275.36450 1258.20692 1237.17661 1221.86796 1207.85862 1193.09170 1176.68360 1162.12027 1144.28970 1123.62980 1100.80484 1080.20628 1058.07168 1033.64742 1011.00515  994.13141  977.11364  962.55749  948.95005  937.64486  927.14526  917.96305  909.38401  901.29116  894.22375  887.48506  884.17065  883.99599  883.76035  884.81228  887.96137  876.24607  849.67479  830.03376
  18.00000 1443.98292 1435.20455 1417.50476 1384.53979 1324.49182 1266.32353 1291.16696 1357.46719 1398.36514 1430.31236 1445.01941 1451.05232 1442.34857 1433.27074 1428.90699 1422.58774 1415.79281 1406.95424 1394.41738 1381.33918 1367.21654 1354.04356 1338.18328 1318.93811 1299.88197 1286.77255 1269.79069 1249.05667 1233.86478 1219.89386 1205.00423 1188.57811 1173.84459 1155.73804 1134.79186 1111.82215 1091.01449 1068.55520 1043.80164 1020.82946 1003.70168  986.52719  971.81590  958.07292  946.64460  936.06969  926.81547  918.18052  910.06554  902.97759  896.23380  892.83893  892.50983  892.09980  892.90443  895.61894  883.46583  856.59146  836.56712
  19.00000 1450.66863 1441.82059 1423.84628 1390.15488 1328.91694 1270.27432 1292.97359 1358.78472 1401.31392 1435.67073 1451.66300 1458.01516 1449.93048 1441.31689 1437.15940 1431.11454 1424.54369 1415.88702 1403.73070 1390.89188 1376.89661 1363.86154 1348.30382 1329.37453 1310.60182 1297.54387 1280.74044 1260.32114 1245.24632 1231.31072 1216.29490 1199.85563 1184.95046 1166.57092 1145.34801 1122.25317 1101.25024 1078.47870 1053.41294 1030.12599 1012.75316  995.43354  980.57300  966.69919  955.14883  944.50103  935.17556  926.48603  918.35176  911.24506  904.49907  901.01706  900.51806  899.91758  900.45289  902.69670  890.09791  862.94781  842.55372
  20.00000 1457.00345 1448.07422 1429.81865 1395.40001 1332.98080 1273.88683 1294.34378 1359.55769 1403.69779 1440.46736 1457.72754 1464.37903 1456.91991 1448.77328 1444.80645 1439.02828 1432.67345 1424.19266 1412.41889 1399.82176 1385.95308 1373.05307 1357.80335 1339.19836 1320.71733 1307.70422 1291.07925 1270.98800 1256.02886 1242.12506 1226.98192 1210.53447 1195.45928 1176.81392 1155.32739 1132.12719 1110.94409 1087.87530 1062.51641 1038.93163 1021.32440 1003.87114  988.86749  974.86751  963.19633  952.47753  943.08113  934.33764  926.18572  919.06103  912.31447  908.73937  908.05765  907.25343  907.50153  909.24608  896.19722  868.79641  848.04702
  21.00000 1463.00058 1453.98261 1435.44537 1400.31022 1336.73399 1277.21782 1295.36623 1359.88643 1405.60121 1444.76087 1463.25910 1470.19010 1463.35805 1455.67809 1451.88665 1446.36700 1440.22024 1431.90968 1420.51756 1408.16341 1394.42086 1381.65307 1366.71406 1348.43811 1330.25361 1317.27907 1300.83026 1281.07577 1266.22943 1252.35355 1237.08404 1220.63341 1205.39249 1186.49211 1164.75815 1141.47230 1120.12520 1096.77640 1071.14506 1047.28098 1029.45138 1011.87587  996.73550  982.61397  970.82336  960.03499  950.56762  941.77018  933.60118  926.45837  919.71171  916.03829  915.16342  914.14468  914.09145  915.31500  901.81484  874.18613  853.09663
  22.00000 1468.67330 1459.56259 1440.74876 1404.91787 1340.22243 1280.31862 1296.12095 1359.86182 1407.10114 1448.60544 1468.30102 1475.49189 1469.28393 1462.06756 1458.43667 1453.16692 1447.22041 1439.07477 1428.06080 1415.95002 1402.33338 1389.69502 1375.06701 1357.12161 1339.23542 1326.29357 1310.01660 1290.60348 1275.86571 1262.01357 1246.62046 1230.17157 1214.77152 1195.63002 1173.66741 1150.31548 1128.82138 1105.21165 1079.32994 1055.20637 1037.16769 1019.48115 1004.21067  989.97219  978.06369  967.20681  957.66816  948.81625  940.62983  933.46799  926.72071  922.94433  921.86809  920.62637  920.26108  920.94805  906.99816  879.16230  857.74849
  23.00000 1474.03488 1464.83056 1445.74999 1409.25278 1343.48770 1283.23540 1296.67979 1359.56576 1408.26740 1452.05101 1472.89403 1480.32538 1474.73445 1467.97612 1464.49137 1459.46254 1453.70855 1445.72284 1435.08125 1423.21337 1409.72265 1397.21097 1382.89216 1365.27591 1347.68717 1334.77253 1318.66138 1299.59050 1284.95598 1271.12313 1255.61071 1239.16839 1223.61775 1204.25164 1182.08128 1158.68259 1137.05912 1113.20911 1087.10020 1062.73803 1044.50458 1026.71809 1011.32429  996.97348  984.94880  974.02417  964.41369  955.50639  947.30140  940.11895  933.36963  929.48627  928.20238  926.73128  926.04630  926.18667  911.79108  883.76689  862.04502
  24.00000 1479.09854 1469.80252 1450.46910 1413.34240 1346.56724 1286.00949 1297.10689 1359.07171 1409.16316 1455.14352 1477.07637 1484.72909 1479.74449 1473.43642 1470.08385 1465.28666 1459.71760 1451.88706 1441.61011 1429.98390 1416.61931 1404.23165 1390.21835 1372.92736 1355.63285 1342.74035 1326.78755 1308.05656 1293.51899 1279.70076 1264.07462 1247.64355 1231.95245 1212.38042 1190.02494 1166.59840 1144.86367 1120.79527 1094.48318 1069.90418 1051.49111 1033.61558 1018.10541 1003.64688  991.50793  980.51607  970.83309  961.86912  953.64373  946.43850  939.68497  935.69114  934.19512  932.49012  931.48055  931.06928  916.23418  888.03870  866.02532
  25.00000 1483.87747 1474.49406 1454.92509 1417.21192 1349.49463 1288.67770 1297.45918 1358.44524 1409.84524 1457.92514 1480.88389 1488.73920 1484.34701 1478.47938 1475.24558 1470.67047 1465.27884 1457.59898 1447.67721 1436.29076 1423.05261 1410.78641 1397.07335 1380.10154 1363.09604 1350.22103 1334.41795 1316.02160 1301.57386 1287.76543 1272.03223 1255.61688 1239.79677 1220.03921 1197.52257 1174.08665 1152.25902 1127.99512 1101.50450 1076.73110 1058.15424 1040.20038 1024.58093 1010.01933  997.76821  986.70949  976.95320  967.93102  959.68286  952.45220  945.69160  941.58432  939.87328  937.93153  936.59498  935.63141  920.36488  892.01347  869.72536
  26.00000 1488.38475 1478.92031 1459.13592 1420.88437 1352.29983 1291.27258 1297.78682 1357.74448 1410.36457 1460.43444 1484.35014 1492.38964 1488.57307 1483.13430 1480.00638 1475.64358 1470.42202 1462.88853 1453.31103 1442.16179 1429.05054 1416.90332 1403.48387 1386.82328 1370.09987 1357.23809 1341.57518 1323.50572 1309.14004 1295.33644 1279.50372 1263.10831 1247.17165 1227.25034 1204.59746 1181.17005 1159.26802 1134.83223 1108.18813 1083.24322 1064.51894 1046.49726 1030.77575 1016.11575 1003.75476  992.62940  982.79898  973.71685  965.44307  958.18395  951.41287  947.18963  945.26210  943.08226  941.41850  939.90590  924.21762  895.72409  873.17809
  27.00000 1492.63333 1483.09602 1463.11856 1424.38082 1355.00941 1293.82271 1298.13367 1357.02058 1410.76652 1462.70663 1487.50649 1495.71218 1492.45194 1487.42887 1484.39450 1480.23407 1475.17533 1467.78410 1458.53873 1447.62359 1434.63979 1422.60921 1409.47556 1393.11666 1376.66699 1363.81460 1348.28158 1330.52910 1316.23720 1302.43337 1286.50933 1270.13782 1254.09785 1234.03551 1211.27196 1187.87034 1165.91237 1141.32878 1114.55649 1089.46325 1070.60830 1052.52909 1036.71282 1021.95914 1009.49078  998.29896  988.39357  979.24963  970.94703  963.65608  956.87065  952.52935  950.38513  947.96716  945.97792  943.92298  927.82400  899.20073  876.41369
  28.00000 1496.63601 1487.03546 1466.88906 1427.72043 1357.64680 1296.35297 1298.53763 1356.31822 1411.09126 1464.77373 1490.38222 1498.73651 1496.01116 1491.38926 1488.43669 1484.46856 1479.56553 1472.31259 1463.38623 1452.70159 1439.84582 1427.92965 1415.07306 1399.00500 1382.81952 1369.97310 1354.55920 1337.11195 1322.88516 1309.07597 1293.06935 1276.72537 1260.59585 1240.41588 1217.56755 1194.20828 1172.21269 1147.50564 1120.63047 1095.41224 1076.44361 1058.31693 1042.41327 1027.57069 1014.99766 1003.73953  993.75838  984.55068  976.21578  968.88941  962.08537  957.62431  955.26431  952.60935  950.29806  947.71043  931.21294  902.47099  879.45964
  29.00000 1500.40542 1490.75246 1470.46255 1430.92060 1360.23245 1298.88478 1299.03115 1355.67599 1411.37409 1466.66478 1493.00458 1501.49038 1499.27661 1495.04015 1492.15825 1488.37227 1483.61794 1476.49949 1467.87821 1457.42000 1444.69289 1432.88903 1420.30000 1404.51088 1388.57909 1375.73562 1360.42976 1343.27445 1329.10380 1315.28414 1299.20398 1282.89084 1266.68582 1246.41198 1223.50483 1200.20371 1178.18854 1153.38246 1126.42957 1101.10966 1082.04446 1063.88015 1047.89651 1032.96984 1020.29505 1008.97079  998.91316  989.63976  981.26889  973.90332  967.07612  962.49398  959.92006  957.03028  954.40183  951.29372  934.41084  905.56003  882.34091
  30.00000 1503.95397 1494.26044 1473.85327 1433.99709 1362.78411 1301.43638 1299.64155 1355.12684 1411.64579 1468.40600 1495.39894 1503.99963 1502.27259 1498.40484 1495.58305 1491.96903 1487.35655 1480.36887 1472.03814 1461.80191 1449.20409 1437.51058 1425.17900 1409.65607 1393.96677 1381.12364 1365.91459 1349.03668 1334.91305 1321.07779 1304.93334 1288.65401 1272.38767 1252.04377 1229.10357 1205.87558 1183.85847 1158.97765 1131.97194 1106.57352 1087.42887 1069.23648 1053.18032 1038.17443 1025.40101 1014.01083 1003.87613  994.53510  986.12447  978.71582  971.86069  967.15646  964.37133  961.24978  958.31033  954.69613  937.44170  908.49073  885.08012
  31.00000 1507.29385 1497.57232 1477.07465 1436.96408 1365.31697 1304.02302 1300.39141 1354.69849 1411.93292 1470.02097 1497.58885 1506.28829 1505.02185 1501.50523 1498.73365 1495.28137 1490.80400 1483.94350 1475.88837 1465.86932 1453.40139 1441.81641 1429.73175 1414.46165 1399.00307 1386.15807 1371.03459 1354.41855 1340.33275 1326.47681 1310.27741 1294.03447 1277.72090 1257.33060 1234.38268 1211.24193 1189.24005 1164.30849 1137.27444 1111.82038 1092.61331 1074.40215 1058.28092 1043.20075 1030.33200 1018.87622 1008.66399  999.25350  990.79926  983.34361  976.45563  971.62860  968.63570  965.28617  962.04295  957.93884  940.32727  911.28383  887.69764
  32.00000 1510.43700 1500.70059 1480.13932 1439.83435 1367.84388 1306.65724 1301.29895 1354.41383 1412.25812 1471.53082 1499.59610 1508.37868 1507.54570 1504.36196 1501.63127 1498.33057 1493.98171 1487.24487 1479.45010 1469.64313 1457.30567 1445.82753 1433.97895 1418.94788 1403.70794 1390.85924 1375.81023 1359.43977 1345.38264 1331.50103 1315.25595 1299.05161 1282.70468 1262.29122 1239.36028 1216.32000 1194.34993 1169.39120 1142.35272 1116.86551 1097.61286 1079.39195 1063.21309 1048.06363 1035.10307 1023.58212 1013.29207 1003.81036  995.30870  987.80213  980.87629  975.92605  972.72940  969.15632  965.61745  961.04110  943.08719  913.95801  890.21178
  33.00000 1513.39509 1503.65728 1483.05914 1442.61929 1370.37554 1309.34906 1302.37836 1354.29125 1412.64042 1472.95436 1501.44087 1510.29149 1509.86403 1506.99436 1504.29589 1501.13665 1496.90985 1490.29324 1482.74345 1473.14321 1460.93675 1449.56390 1437.94039 1423.13430 1408.10071 1395.24687 1380.26152 1364.11982 1350.08229 1336.17012 1319.88847 1303.72455 1287.35776 1266.94378 1244.05372 1221.12619 1199.20385 1174.24093 1147.22128 1121.72292 1102.44121 1084.21932 1067.99025 1052.77653 1039.72786 1028.14231 1017.77435 1008.21984  999.66700  992.10563  985.13691  980.06327  976.66741  972.87575  969.05008  964.02031  945.73911  916.53008  892.63886
  34.00000 1516.17950 1506.45398 1485.84525 1445.32908 1372.92068 1312.10619 1303.64013 1354.34505 1413.09550 1474.30825 1503.14173 1512.04584 1511.99542 1509.42061 1506.74629 1503.71851 1499.60744 1493.10767 1485.78751 1476.38842 1464.31342 1453.04443 1441.63495 1427.03969 1412.20014 1399.34007 1384.40794 1368.47784 1354.45106 1340.50354 1324.19419 1308.07213 1291.69846 1271.30582 1248.47954 1225.67609 1203.81671 1178.87186 1151.89354 1126.40540 1107.11084 1088.89643 1072.62451 1057.35163 1044.21874 1032.56931 1022.12354 1012.49483 1003.88718  996.26723  989.25062  984.05364  980.46350  976.45866  972.35562  966.89215  948.29882  919.01504  894.99339
  35.00000 1518.80131 1509.10180 1488.50806 1447.97271 1375.48619 1314.93422 1305.09139 1354.58574 1413.63597 1475.60717 1504.71579 1513.65936 1513.95714 1511.65771 1509.00009 1506.09388 1502.09237 1495.70610 1488.60034 1479.39664 1467.45348 1456.28708 1445.08060 1430.68209 1416.02435 1403.15734 1388.26844 1372.53267 1358.50800 1344.52052 1328.19202 1312.11286 1295.74467 1275.39428 1252.65358 1229.98457 1208.20256 1183.29723 1156.38188 1130.92469 1111.63303 1093.43425 1077.12680 1061.79989 1048.58683 1036.87444 1026.35119 1016.64708 1007.98113 1000.29897  993.22956  987.90950  984.13034  979.91803  975.54749  969.67066  950.78036  921.42626  897.28816
  36.00000 1521.27128 1511.61140 1491.05736 1450.55814 1378.07733 1317.83686 1306.73618 1355.02043 1414.27163 1476.86393 1506.17875 1515.14827 1515.76526 1513.72157 1511.07380 1508.27944 1504.38145 1498.10541 1491.19902 1482.18482 1470.37378 1459.30879 1448.29446 1434.07880 1419.59086 1406.71652 1391.86144 1376.30273 1362.27188 1348.24000 1331.90047 1315.86487 1299.51381 1279.22550 1256.59091 1234.06571 1212.37466 1187.52939 1160.69771 1135.29143 1116.01792 1097.84267 1081.50688 1066.13114 1052.84214 1041.06789 1030.46773 1020.68722 1011.95973 1004.21187  997.08486  991.64218  987.67948  983.26568  978.63781  972.36838  953.19614  923.77551  899.53437
  37.00000 1523.59983 1513.99299 1493.50226 1453.09229 1380.69786 1320.81607 1308.57577 1355.65308 1415.00969 1478.08963 1507.54494 1516.52746 1517.43469 1515.62703 1512.98287 1510.29081 1506.49046 1500.32139 1493.59969 1484.76898 1473.09023 1462.12563 1451.29281 1437.24638 1422.91654 1410.03482 1395.20478 1379.80604 1365.76108 1351.68055 1335.33766 1319.34590 1303.02282 1282.81521 1260.30592 1237.93291 1216.34553 1191.57986 1164.85156 1139.51533 1120.27466 1102.13049 1085.77350 1070.35415 1056.99359 1045.15878 1034.48250 1024.62488 1015.83280 1008.01598 1000.82673  995.26206  991.12149  986.51236  981.63752  974.99640  955.55706  926.07314  901.74173
  38.00000 1525.79705 1516.25633 1495.85130 1455.58123 1383.35019 1323.87225 1310.60895 1356.48483 1415.85506 1479.29377 1508.82747 1517.81054 1518.97920 1517.38794 1514.74172 1512.14263 1508.43418 1502.36886 1495.81756 1487.16426 1475.61785 1464.75271 1454.09106 1440.20065 1426.01764 1413.12881 1398.31570 1383.06018 1368.99358 1354.86038 1338.52128 1322.57326 1306.28814 1286.17855 1263.81231 1241.59887 1220.12695 1195.45934 1168.85306 1143.60513 1124.41142 1106.30559 1089.93440 1074.47669 1061.04910 1049.15523 1038.40390 1028.46869 1019.60927 1011.72043 1004.46453  998.77864  994.46594  989.66774  984.55640  977.56452  957.87262  928.32814  903.91860
  39.00000 1527.87265 1518.41072 1498.11240 1458.03015 1386.03552 1327.00443 1312.83222 1357.51431 1416.81051 1480.48442 1510.03822 1519.00993 1520.41155 1519.01719 1516.36381 1513.84858 1510.22644 1504.26168 1497.86698 1489.38494 1477.97081 1467.20431 1456.70385 1442.95675 1428.90977 1416.01440 1401.21085 1386.08223 1371.98695 1357.79727 1341.46855 1325.56381 1309.32571 1289.33007 1267.12310 1245.07563 1223.73002 1199.17779 1172.71106 1147.56877 1128.43545 1110.37491 1093.99641 1078.50561 1065.01566 1053.06446 1042.23938 1032.22638 1023.29714 1015.33350 1008.00674 1002.20055  997.72152  992.74057  987.40318  980.08126  960.15098  930.54828  906.07204
  40.00000 1529.83599 1520.46502 1500.29298 1460.44351 1388.75398 1330.21039 1315.24015 1358.73788 1417.87691 1481.66829 1511.18796 1520.13690 1521.74346 1520.52673 1517.86165 1515.42143 1511.88017 1506.01279 1499.76144 1491.44447 1480.16243 1469.49387 1459.14502 1445.52907 1431.60788 1418.70681 1403.90624 1388.88878 1374.75826 1360.50854 1344.19620 1328.33393 1312.15094 1292.28371 1270.25067 1248.37457 1227.16516 1202.74446 1176.43366 1151.41337 1132.35320 1114.34458 1097.96550 1082.44692 1068.89937 1056.89278 1045.99551 1035.90480 1026.90360 1018.86263 1011.46107 1005.53563 1000.89605  995.73865  990.18559  982.55405  962.39913  932.74014  908.20796
  41.00000 1531.69607 1522.42766 1502.39988 1462.82507 1391.50474 1333.48684 1317.82552 1360.14988 1419.05345 1482.85088 1512.28639 1521.20164 1522.98572 1521.92764 1519.24685 1516.87307 1513.40741 1507.63427 1501.51359 1493.35553 1482.20525 1471.63399 1461.42764 1447.93132 1434.12632 1421.22066 1406.41727 1391.49588 1377.32407 1363.01102 1346.72045 1330.89951 1314.77870 1295.05285 1273.20676 1251.50648 1230.44218 1206.16791 1180.02824 1155.14529 1136.17032 1118.21993 1101.84688 1086.30580 1072.70554 1060.64573 1049.67808 1039.51002 1030.43504 1022.31451 1014.83450 1008.79097 1003.99655  998.66894  992.91042  984.98920  964.62292  934.90925  910.33119
  42.00000 1533.46148 1524.30659 1504.43950 1465.17798 1394.28616 1336.82956 1320.57963 1361.74293 1420.33781 1484.03658 1513.34221 1522.21336 1524.14819 1523.23020 1520.53020 1518.21457 1514.81939 1509.13734 1503.13533 1495.13000 1484.11102 1473.63651 1463.56404 1450.17653 1436.47874 1423.56985 1408.75870 1393.91901 1379.70044 1365.32104 1349.05698 1333.27591 1317.22333 1297.65027 1276.00253 1254.48154 1233.57026 1209.45607 1183.50153 1158.77024 1139.89177 1122.00560 1105.64500 1090.08674 1076.43875 1064.32807 1053.29210 1043.04736 1033.89711 1025.69509 1018.13327 1011.97292 1007.02929 1001.53761  995.58361  987.39207  966.82718  937.06019  912.44559
  43.00000 1535.14044 1526.10937 1506.41771 1467.50481 1397.09585 1340.23350 1323.49245 1363.50812 1421.72636 1485.22877 1514.36318 1523.18030 1525.23990 1524.44384 1521.72164 1519.45618 1516.12652 1510.53245 1504.63778 1496.77905 1485.89075 1475.51252 1465.56583 1452.27702 1438.67819 1425.76765 1410.94464 1396.17309 1381.90285 1367.45437 1351.22091 1335.47796 1319.49862 1300.08820 1278.64850 1257.30937 1236.55804 1212.61630 1186.85965 1162.29327 1143.52185 1125.70558 1109.36366 1093.79350 1080.10284 1067.94389 1056.84189 1046.52141 1037.29478 1029.00963 1021.36300 1015.08717 1009.99982 1004.35007  998.21031  989.76712  969.01579  939.19662  914.55410
  44.00000 1536.74078 1527.84311 1508.33998 1469.80765 1399.93085 1343.69297 1326.55286 1365.43524 1423.21430 1486.42992 1515.35620 1524.10978 1526.26906 1525.57730 1522.83036 1520.60740 1517.33847 1511.82929 1506.03133 1498.31311 1487.55474 1477.27239 1467.44391 1454.24448 1440.73707 1427.82668 1412.98852 1398.27246 1383.94622 1369.42623 1353.22682 1337.51995 1321.61779 1302.37826 1281.15468 1259.99903 1239.41359 1215.65537 1190.10814 1165.71886 1147.06424 1129.32323 1113.00607 1097.42927 1083.70106 1071.49661 1060.33113 1049.93614 1040.63237 1032.26280 1024.52865 1018.13879 1012.91303 1007.11105 1000.79490  992.11797  971.19181  941.32139  916.65887
  45.00000 1538.26994 1529.51450 1510.21132 1472.08812 1402.78767 1347.20170 1329.74884 1367.51301 1424.79589 1487.64171 1516.32733 1525.00833 1527.24311 1526.63855 1523.86480 1521.67702 1518.46418 1513.03680 1507.32568 1499.74194 1489.11261 1478.92578 1469.20850 1456.08991 1442.66713 1429.75889 1414.90316 1400.23084 1385.84486 1371.25123 1355.08866 1339.41560 1323.59352 1304.53157 1283.53047 1262.55906 1242.14448 1218.57954 1193.25204 1169.05095 1150.52211 1132.86138 1116.57484 1100.99664 1087.23605 1074.98909 1063.76288 1053.29491 1043.91359 1035.45862 1027.63462 1021.13224 1015.77319 1009.82462 1003.34109  994.44748  973.35749  943.43662  918.76129
  46.00000 1539.73494 1531.12983 1512.03636 1474.34745 1405.66240 1350.75298 1333.06762 1369.72923 1426.46452 1488.86507 1517.28186 1525.88166 1528.16878 1527.63492 1524.83270 1522.67313 1519.51189 1514.16327 1508.52984 1501.07465 1490.57332 1480.48169 1470.86917 1457.82371 1444.47951 1431.57558 1416.70069 1402.06132 1387.61250 1372.94339 1356.81981 1341.17804 1325.43792 1306.55865 1285.78477 1264.99750 1244.75776 1221.39457 1196.29586 1172.29299 1153.89811 1136.32238 1120.07211 1104.49770 1090.70993 1078.42363 1067.13968 1056.60051 1047.14161 1038.60058 1030.68475 1024.07143 1018.58400 1012.49426 1005.85197  996.75784  975.51438  945.54377  920.86213
  47.00000 1541.14243 1532.69495 1513.81934 1476.58656 1408.55082 1354.33976 1336.49590 1372.07103 1428.21292 1490.10030 1518.22437 1526.73476 1529.05211 1528.57309 1525.74115 1523.60315 1520.48922 1515.21631 1509.65220 1502.31971 1491.94520 1481.94848 1472.43485 1459.45562 1446.18471 1433.28741 1418.39259 1403.77640 1389.26220 1374.51612 1358.43304 1342.81984 1327.16254 1308.46951 1287.92596 1267.32191 1247.26006 1224.10577 1199.24370 1175.44798 1157.19443 1139.70810 1123.49955 1107.93406 1094.12435 1081.80204 1070.46352 1059.85523 1050.31907 1041.69166 1033.68237 1026.95975 1021.34863 1015.12289 1008.33002  999.05059  977.66342  947.64369  922.96153
  48.00000 1542.49866 1534.21535 1515.56414 1478.80602 1411.44844 1357.95477 1340.01997 1374.52500 1430.03328 1491.34717 1519.15878 1527.57194 1529.89851 1529.45913 1526.59658 1524.47391 1521.40313 1516.20293 1510.70052 1503.48498 1493.23597 1483.33389 1473.91383 1460.99477 1447.79263 1434.90441 1419.98969 1405.38791 1390.80642 1375.98218 1359.94051 1344.35297 1328.77836 1310.27360 1289.96192 1269.53937 1249.65751 1226.71803 1202.09923 1178.51850 1160.41289 1143.02003 1126.85843 1111.30692 1097.48049 1085.12569 1073.73597 1063.06087 1053.44815 1044.73435 1036.63035 1029.80013 1024.06973 1017.71294 1010.77721 1001.32674  979.80498  949.73671  925.05914
  49.00000 1543.80947 1535.69609 1517.27430 1481.00617 1414.35065 1361.59056 1343.62586 1377.07735 1431.91736 1492.60495 1520.08840 1528.39685 1530.71279 1530.29854 1527.40486 1525.29161 1522.26000 1517.12954 1511.68198 1504.57775 1494.45279 1484.64509 1475.31385 1462.44970 1449.31255 1436.43598 1421.50215 1406.90705 1392.25695 1377.35370 1361.35375 1345.78881 1330.29579 1311.97988 1291.90004 1271.65653 1251.95588 1229.23583 1204.86575 1181.50680 1163.55491 1146.25930 1130.14962 1114.61709 1100.77917 1088.39552 1076.95816 1066.21883 1056.53057 1047.73070 1039.53109 1032.59502 1026.74953 1020.26635 1013.19504 1003.58676  981.93892  951.82268  927.15415
  50.00000 1545.08032 1537.14187 1518.95306 1483.18716 1417.25270 1365.23966 1347.29951 1379.71410 1433.85663 1493.87248 1521.01595 1529.21259 1531.49918 1531.09629 1528.17126 1526.06193 1523.06568 1518.00202 1512.60318 1505.60474 1495.60225 1485.88867 1476.64203 1463.82837 1450.75314 1437.89090 1422.93949 1408.34438 1393.62496 1378.64215 1362.68366 1347.13814 1331.72471 1313.59678 1293.74727 1273.67962 1254.16051 1231.66328 1207.54621 1184.41477 1166.62163 1149.42672 1133.37372 1117.86507 1104.02084 1091.61213 1080.13083 1069.33008 1059.56765 1050.68236 1042.38660 1035.34647 1029.38981 1022.78464 1015.58456 1005.83071  984.06467  953.90105  929.24535
  51.00000 1546.31627 1538.55700 1520.60332 1485.34892 1420.14983 1368.89458 1351.02687 1382.42116 1435.84237 1495.14830 1521.94364 1530.02169 1532.26142 1531.85684 1528.90055 1526.79000 1523.82545 1518.82569 1513.47022 1506.57218 1496.69043 1487.07069 1477.90497 1465.13817 1452.12251 1439.27734 1424.31060 1409.70983 1394.92094 1379.85836 1363.94055 1348.41115 1333.07441 1315.13223 1295.51010 1275.61447 1256.27637 1234.00416 1210.14326 1187.24402 1169.61389 1152.52281 1136.53100 1121.05105 1107.20566 1094.77580 1083.25441 1072.39528 1062.56037 1053.59058 1045.19852 1038.05617 1031.99198 1025.26897 1017.94643 1008.05822  986.18129  955.97091  931.33118
  52.00000 1547.52201 1539.94545 1522.22774 1487.49128 1423.03733 1372.54794 1354.79403 1385.18454 1437.86578 1496.43064 1522.87321 1530.82619 1533.00273 1532.58417 1529.59698 1527.48045 1524.54413 1519.60541 1514.28864 1507.48574 1497.72290 1488.19671 1479.10874 1466.38593 1453.42817 1440.60289 1425.62371 1411.01265 1396.15472 1381.01250 1365.13406 1349.61741 1334.35364 1316.59367 1297.19460 1277.46652 1258.30811 1236.26195 1212.65925 1189.99591 1172.53228 1155.54789 1139.62153 1124.17496 1110.33350 1097.88649 1086.32901 1075.41472 1065.50935 1056.45631 1047.96811 1040.72541 1034.55710 1027.72010 1020.28097 1010.26861  988.28751  958.03103  933.40983
  53.00000 1548.70183 1541.31080 1523.82868 1489.61393 1425.91054 1376.19252 1358.58731 1387.99041 1439.91807 1497.71753 1523.80596 1531.62767 1533.72591 1533.28183 1530.26433 1528.13746 1525.22603 1520.34555 1515.06353 1508.35064 1498.70476 1489.27178 1480.25887 1467.57795 1454.67706 1441.87453 1426.88645 1412.26149 1397.33549 1382.11406 1366.27322 1350.76590 1335.57063 1317.98807 1298.80645 1279.24084 1260.26002 1238.43982 1215.09631 1192.67156 1175.37720 1158.50204 1142.64513 1127.23652 1113.40401 1100.94394 1089.35446 1078.38844 1068.41492 1059.28015 1050.69635 1043.35522 1037.08589 1030.13851 1022.58817 1012.46089  990.38178  960.07995  935.47923
  54.00000 1549.85966 1542.65630 1525.40828 1491.71649 1428.76497 1379.82130 1362.39340 1390.82521 1441.99056 1499.00680 1524.74276 1532.42728 1534.43330 1533.95295 1530.90594 1528.76474 1525.87506 1521.05005 1515.79951 1509.17164 1499.64066 1490.30052 1481.36044 1468.72002 1455.87560 1443.09869 1428.10582 1413.46434 1398.47177 1383.17190 1367.36647 1351.86503 1336.73302 1319.32192 1300.35092 1280.94216 1262.13610 1240.54067 1217.45632 1195.27190 1178.14886 1161.38517 1145.60147 1130.23525 1116.41664 1103.94767 1092.33036 1081.31622 1071.27714 1062.06244 1053.38391 1045.94628 1039.57882 1032.52439 1024.86777 1014.63381  992.46234  962.11599  937.53714
  55.00000 1550.99905 1543.98488 1526.96843 1493.79855 1431.59630 1383.42757 1366.19940 1393.67580 1444.07473 1500.29621 1525.68416 1533.22580 1535.12688 1534.60026 1531.52476 1529.36560 1526.49469 1521.72245 1516.50076 1509.95306 1500.53481 1491.28708 1482.41804 1469.81742 1457.02965 1444.28124 1429.28822 1414.62856 1399.57143 1384.19421 1368.42159 1352.92259 1337.84797 1320.60128 1301.83290 1282.57490 1263.94005 1242.56719 1219.74097 1197.79770 1180.84735 1164.19709 1148.49007 1133.17055 1119.37065 1106.89700 1095.25613 1084.19762 1074.09583 1064.80326 1056.03118 1048.49905 1042.03608 1034.87768 1027.11926 1016.78594  994.52723  964.13729  939.58117
  56.00000 1552.12320 1545.29912 1528.51080 1495.85966 1434.40046 1387.00490 1369.99295 1396.52949 1446.16235 1501.58340 1526.63035 1534.02366 1535.80825 1535.22615 1532.12331 1529.94298 1527.08799 1522.36589 1517.17102 1510.69880 1501.39102 1492.23522 1483.43582 1470.87494 1458.14453 1445.42751 1430.43944 1415.76089 1400.64172 1385.18853 1369.44578 1353.94581 1338.92209 1321.83176 1303.25693 1284.14313 1265.67532 1244.52184 1221.95178 1200.24959 1183.47263 1166.93745 1151.31035 1136.04166 1122.26520 1109.79110 1098.13099 1087.03200 1076.87061 1067.50247 1058.63836 1051.01372 1044.45762 1037.19809 1029.34193 1018.91564  996.57437  966.14189  941.60884
  57.00000 1553.23494 1546.60130 1530.03689 1497.89936 1437.17362 1390.54726 1373.76228 1399.37419 1448.24546 1502.86602 1527.58127 1534.82099 1536.47872 1535.83267 1532.70379 1530.49942 1527.65769 1522.98316 1517.81369 1511.41238 1502.21272 1493.14829 1484.41751 1471.89692 1459.22509 1446.54231 1431.56474 1416.86748 1401.68922 1386.16176 1370.44563 1354.94133 1339.96149 1323.01853 1304.62724 1285.65066 1267.34509 1246.40686 1224.09012 1202.62808 1186.02457 1169.60586 1154.06164 1138.84776 1125.09931 1112.62902 1100.95403 1089.81856 1079.60089 1070.15973 1061.20538 1053.49028 1046.84321 1039.48516 1031.53490 1021.02118  998.60158  968.12771  943.61760
  58.00000 1554.33678 1547.89340 1531.54796 1499.91721 1439.91224 1394.04902 1377.49628 1402.19843 1450.31653 1504.14172 1528.53655 1535.61761 1537.13925 1536.42155 1533.26804 1531.03715 1528.20617 1523.57672 1518.43175 1512.09694 1503.00298 1494.02928 1485.36644 1472.88725 1460.27566 1447.62993 1432.66877 1417.95384 1402.71990 1387.12017 1371.42714 1355.91524 1340.97178 1324.16637 1305.94769 1287.10101 1268.95232 1248.22436 1226.15723 1204.93360 1188.50299 1172.20186 1156.74320 1141.58793 1127.87195 1115.40972 1103.72421 1092.55637 1082.28595 1072.77453 1063.73203 1055.92854 1049.19243 1041.73826 1033.69714 1023.10071 1000.60661  970.09265  945.60489
  59.00000 1555.43087 1549.17709 1533.04514 1501.91283 1442.61315 1397.50499 1381.18455 1404.99142 1452.36842 1505.40819 1529.49564 1536.41314 1537.79057 1536.99425 1533.81762 1531.55806 1528.73549 1524.14870 1519.02785 1512.75528 1503.76451 1494.88082 1486.28553 1473.84939 1461.30010 1448.69418 1433.75566 1419.02492 1403.73910 1388.06941 1372.39574 1356.87306 1341.95806 1325.27964 1307.22186 1288.49743 1270.49974 1249.97624 1228.15425 1207.16652 1190.90766 1174.72495 1159.35427 1144.26124 1130.58202 1118.13206 1106.44041 1095.24438 1084.92492 1075.34619 1066.21791 1058.32812 1051.50472 1043.95660 1035.82753 1025.15232 1002.58720  972.03456  947.56812
  60.00000 1556.51906 1550.45378 1534.52939 1503.88585 1445.27347 1400.91045 1384.81745 1407.74317 1454.39450 1506.66321 1530.45776 1537.20695 1538.43313 1537.55197 1534.35378 1532.06379 1529.24742 1524.70095 1519.60432 1513.38986 1504.49971 1495.70524 1487.17738 1474.78639 1462.30182 1449.73839 1434.82902 1420.08509 1404.75158 1389.01449 1373.35629 1357.81977 1342.92499 1326.36234 1308.45302 1289.84293 1271.98990 1251.66431 1230.08223 1209.32714 1193.23836 1177.17463 1161.89409 1146.86672 1133.22837 1120.79487 1109.10143 1097.88147 1087.51683 1077.87394 1068.66248 1060.68852 1053.77937 1046.13931 1037.92483 1027.17407 1004.54107  973.95131  949.50479
  61.00000 1557.60287 1551.72462 1536.00149 1505.83601 1447.89073 1404.26118 1388.38618 1410.44447 1456.38865 1507.90465 1531.42198 1537.99823 1539.06719 1538.09567 1534.87752 1532.55566 1529.74346 1525.23506 1520.16318 1514.00284 1505.21070 1496.50453 1488.04422 1475.70090 1463.28379 1450.76545 1435.89192 1421.13815 1405.76149 1389.95986 1374.31307 1358.75983 1343.87674 1327.41809 1309.64419 1291.14031 1273.42517 1253.29021 1231.94214 1211.41576 1195.49485 1179.55043 1164.36190 1149.40342 1135.80989 1123.39696 1111.70604 1100.46642 1090.06063 1080.35686 1071.06508 1063.00911 1056.01559 1048.28542 1039.98777 1029.16402 1006.46598  975.84080  951.41243
  62.00000 1558.68352 1552.99048 1537.46212 1507.76311 1450.46283 1407.55347 1391.88276 1413.08697 1458.34530 1509.13053 1532.38721 1538.78602 1539.69278 1538.62609 1535.38960 1533.03477 1530.22486 1525.75238 1520.70614 1514.59608 1505.89930 1497.28042 1488.88795 1476.59522 1464.24854 1451.77781 1436.94698 1422.18737 1406.77241 1390.90936 1375.26987 1359.69718 1344.81704 1328.45014 1310.79811 1292.39212 1274.80772 1254.85552 1233.73492 1213.43267 1197.67693 1181.85187 1166.75698 1151.87041 1138.32544 1125.93713 1114.25299 1102.99800 1092.55517 1082.79398 1073.42495 1065.28914 1058.21249 1050.39388 1042.01502 1031.12023 1008.35976  977.70099  953.28865
  63.00000 1559.76195 1554.25201 1538.91181 1509.66702 1452.98808 1410.78416 1395.30009 1415.66322 1460.25945 1510.33902 1533.35226 1539.56923 1540.30978 1539.14377 1535.89057 1533.50200 1530.69262 1526.25400 1521.23468 1515.17119 1506.56706 1498.03436 1489.71019 1477.47128 1465.19823 1452.77748 1437.99630 1423.23548 1407.78737 1391.86627 1376.22992 1360.63525 1345.74918 1329.46141 1311.91728 1293.60073 1276.13960 1256.36170 1235.46146 1215.37814 1199.78444 1184.07856 1169.07865 1154.26678 1140.77394 1128.41417 1116.74100 1105.47495 1094.99930 1085.18426 1075.74124 1067.52780 1060.36911 1052.46360 1044.00524 1033.04083 1010.22032  979.52992  955.13122
  64.00000 1560.83880 1555.50961 1540.35099 1511.54774 1455.46518 1413.95062 1398.63196 1418.16664 1462.12673 1511.52847 1534.31584 1540.34664 1540.91790 1539.64909 1536.38078 1533.95800 1531.14756 1526.74084 1521.74999 1515.72951 1507.21530 1498.76756 1490.51228 1478.33067 1466.13460 1453.76611 1439.04157 1424.28473 1408.80885 1392.83333 1377.19596 1361.57700 1346.67606 1330.45451 1313.00396 1294.76832 1277.42270 1257.81013 1237.12263 1217.25251 1201.81726 1186.23015 1171.32631 1156.59171 1143.15433 1130.82695 1119.16882 1107.89598 1097.39180 1087.52659 1078.01304 1069.72421 1062.48446 1054.49347 1045.95709 1034.92399 1012.04567  981.32572  956.93798
  65.00000 1561.91448 1556.76347 1541.77996 1513.40535 1457.89326 1417.05076 1401.87308 1420.59163 1463.94338 1512.69741 1535.27657 1541.11695 1541.51673 1540.14227 1536.86040 1534.40325 1531.59029 1527.21361 1522.25308 1516.27216 1507.84513 1499.48100 1491.29526 1479.17468 1467.05905 1454.74495 1440.08404 1425.33686 1409.83883 1393.81273 1378.17024 1362.52490 1347.60013 1331.43172 1314.06019 1295.89689 1278.65879 1259.20215 1238.71929 1219.05612 1203.77538 1188.30639 1173.49942 1158.84445 1145.46565 1133.17435 1121.53525 1110.25985 1099.73147 1089.81986 1080.23938 1071.87742 1064.55749 1056.48236 1047.86926 1036.76797 1013.83392  983.08666  958.70695
  66.00000 1562.98910 1558.01359 1543.19896 1515.24005 1460.27185 1420.08306 1405.01909 1422.93348 1465.70627 1513.84459 1536.23304 1541.87882 1542.10574 1540.62337 1537.32944 1534.83805 1532.02125 1527.67286 1522.74469 1516.80002 1508.45742 1500.17546 1492.05997 1480.00431 1467.97263 1455.71492 1441.12454 1426.39314 1410.87878 1394.80616 1379.15454 1363.48098 1348.52350 1332.39504 1315.08784 1296.98829 1279.84954 1260.53903 1240.25230 1220.78937 1205.65885 1190.30710 1175.59756 1161.02433 1147.70700 1135.45532 1123.83910 1112.56533 1102.01710 1092.06292 1082.41928 1073.98648 1066.58717 1058.42916 1049.74047 1038.57115 1015.58336  984.81113  960.43633
  67.00000 1564.06259 1559.25975 1544.60810 1517.05214 1462.60092 1423.04655 1408.06654 1425.18848 1467.41293 1514.96896 1537.18380 1542.63082 1542.68431 1541.09235 1537.78779 1535.26254 1532.44073 1528.11898 1523.22541 1517.31380 1509.05289 1500.85151 1492.80699 1480.82028 1468.87606 1456.67658 1442.16353 1427.45443 1411.92969 1395.81482 1380.15020 1364.44685 1349.44787 1333.34617 1316.08856 1298.04421 1280.99649 1261.82201 1241.72256 1222.45275 1207.46781 1192.23221 1177.62041 1163.13078 1149.87757 1137.66891 1126.07928 1114.81123 1104.24750 1094.25465 1084.55172 1076.05040 1068.57245 1060.33275 1051.56948 1040.33200 1017.29241  986.49767  962.12446
  68.00000 1565.13460 1560.50158 1546.00745 1518.84206 1464.88082 1425.94081 1411.01289 1427.35384 1469.06151 1516.06971 1538.12736 1543.37153 1543.25174 1541.54907 1538.23520 1535.67675 1532.84887 1528.55224 1523.69563 1517.81402 1509.63205 1501.50957 1493.53672 1481.62303 1469.76978 1457.63020 1443.20111 1428.52113 1412.99211 1396.83945 1381.15811 1365.42368 1350.37462 1334.28656 1317.06383 1299.06621 1282.10112 1263.05229 1243.13097 1224.04678 1209.20252 1194.08178 1179.56776 1165.16335 1151.97668 1139.81423 1128.25476 1116.99642 1106.42153 1096.39394 1086.63569 1078.06819 1070.51231 1062.19209 1053.35515 1042.04915 1018.95966  988.14497  963.76989
  69.00000 1566.20460 1561.73852 1547.39697 1520.61032 1467.11232 1428.76597 1413.85654 1429.42771 1470.65083 1517.14626 1539.06228 1544.09952 1543.80728 1541.99329 1538.67134 1536.08057 1533.24569 1528.97276 1524.15558 1518.30103 1510.19528 1502.14989 1494.24936 1482.41279 1470.65390 1458.57575 1444.23702 1429.59326 1414.06614 1397.88032 1382.17879 1366.41228 1351.30479 1335.21741 1318.01497 1300.05574 1283.16480 1264.23107 1244.47846 1225.57208 1210.86335 1195.85597 1181.43952 1167.12171 1154.00374 1141.89052 1130.36458 1119.11985 1108.53809 1098.47968 1088.67019 1080.03888 1072.40575 1064.00615 1055.09640 1043.72134 1020.58387  989.75189  965.37135
  70.00000 1567.27187 1562.96986 1548.77658 1522.35759 1469.29660 1431.52269 1416.59679 1431.40920 1472.18034 1518.19825 1539.98709 1544.81336 1544.35011 1542.42469 1539.09575 1536.47378 1533.63110 1529.38059 1524.60535 1518.77502 1510.74281 1502.77258 1494.94493 1483.18957 1471.52832 1459.51292 1445.27071 1430.67046 1415.15148 1398.93731 1383.21234 1367.41305 1352.23909 1336.13970 1318.94316 1301.01411 1284.18885 1265.35953 1245.76604 1227.02937 1212.45079 1197.55509 1183.23577 1169.00567 1155.95830 1143.89713 1132.40791 1121.18055 1110.59613 1100.51085 1090.65423 1081.96151 1074.25181 1065.77398 1056.79224 1045.34749 1022.16401  991.31748  966.92780
  71.00000 1568.33548 1564.19477 1550.14615 1524.08462 1471.43521 1434.21213 1419.23379 1433.29832 1473.65010 1519.22557 1540.90038 1545.51163 1544.87942 1542.84290 1539.50795 1536.85610 1534.00493 1529.77564 1525.04490 1519.23607 1511.27474 1503.37763 1495.62331 1483.95317 1472.39267 1460.44118 1446.30132 1431.75204 1416.24747 1400.00989 1384.25852 1368.42606 1353.17794 1337.05416 1319.84944 1301.94256 1285.17454 1266.43884 1246.99473 1228.41944 1213.96548 1199.17957 1184.95668 1170.81516 1157.84005 1145.83351 1134.38402 1123.17763 1112.59471 1102.48645 1092.58688 1083.83518 1076.04959 1067.49469 1058.44177 1046.92666 1023.69921  992.84097  968.43838
  72.00000 1569.39436 1565.41226 1551.50547 1525.79228 1473.53006 1436.83598 1421.76860 1435.09597 1475.06082 1520.22834 1541.80076 1546.19298 1545.39435 1543.24750 1539.90737 1537.22715 1534.36691 1530.15779 1525.47407 1519.68413 1511.79106 1503.96492 1496.28423 1484.70322 1473.24636 1461.35977 1447.32774 1432.83696 1417.35307 1401.09715 1385.31673 1369.45106 1354.12150 1337.96134 1320.73470 1302.84221 1286.12306 1267.47018 1248.16563 1229.74322 1215.40815 1200.73000 1186.60261 1172.55027 1159.64881 1147.69926 1136.29229 1125.11032 1114.53292 1104.40556 1094.46723 1085.65900 1077.79825 1069.16749 1060.04424 1048.45810 1025.18882  994.32175  969.90246
  73.00000 1570.44728 1566.62124 1552.85432 1527.48152 1475.58343 1439.39641 1424.20307 1436.80393 1476.41378 1521.20692 1542.68693 1546.85608 1545.89406 1543.63804 1540.29340 1537.58650 1534.71672 1530.52682 1525.89260 1520.11904 1512.29168 1504.53424 1496.92733 1485.43918 1474.08862 1462.26769 1448.34861 1433.92390 1418.46691 1402.19785 1386.38609 1370.48746 1355.06963 1338.86161 1321.59977 1303.71412 1287.03559 1268.45477 1249.27989 1231.00169 1216.77971 1202.20709 1188.17406 1174.21124 1161.38454 1149.49411 1138.13222 1126.97795 1116.40999 1106.26733 1096.29445 1087.43216 1079.49702 1070.79167 1061.59897 1049.94123 1026.63238  995.75942  971.31960
  74.00000 1571.49288 1567.82053 1554.19241 1529.15342 1477.59794 1441.89603 1426.53988 1438.42483 1477.71085 1522.16188 1543.55761 1547.49969 1546.37771 1544.01403 1540.66542 1537.93367 1535.05397 1530.88247 1526.30014 1520.54054 1512.77640 1505.08530 1497.55212 1486.16038 1474.91848 1463.16382 1449.36235 1435.01125 1419.58734 1403.31042 1387.46540 1371.53441 1356.02200 1339.75515 1322.44532 1304.55927 1287.91325 1269.39382 1250.33874 1232.19600 1218.08118 1203.61172 1189.67167 1175.79846 1163.04738 1151.21794 1139.90346 1128.77998 1118.22522 1108.07101 1098.06777 1089.15391 1081.14521 1072.36660 1063.10543 1051.37562 1028.02964  997.15377  972.68961
  75.00000 1572.52967 1569.00885 1555.51944 1530.80912 1479.57650 1444.33792 1428.78247 1439.96209 1478.95443 1523.09403 1544.41163 1548.12263 1546.84448 1544.37500 1541.02276 1538.26813 1535.37825 1531.22445 1526.69626 1520.94831 1513.24496 1505.61772 1498.15802 1486.86601 1475.73483 1464.04683 1450.36719 1436.09716 1420.71241 1404.43300 1388.55319 1372.59078 1356.97801 1340.64200 1323.27198 1305.37858 1288.75715 1270.28857 1251.34347 1233.32736 1219.31375 1204.94490 1191.09624 1177.31248 1164.63759 1152.87076 1141.60579 1130.51598 1119.97804 1109.81593 1099.78647 1090.82358 1082.74224 1073.89177 1064.56322 1052.76105 1029.38055  998.50477  974.01247
  76.00000 1573.55605 1570.18482 1556.83507 1532.44985 1481.52234 1446.72555 1430.93501 1441.41988 1480.14749 1524.00438 1545.24789 1548.72380 1547.29358 1544.72046 1541.36478 1538.58934 1535.68911 1531.55240 1527.08048 1521.34196 1513.69706 1506.13112 1498.74440 1487.55517 1476.53641 1464.91527 1451.36120 1437.17957 1421.83994 1405.56348 1389.64777 1373.65522 1357.93691 1341.52203 1324.08028 1306.17292 1289.56838 1271.14029 1252.29544 1234.39713 1220.47871 1206.20782 1192.44875 1178.75400 1166.15562 1154.45275 1143.23913 1132.18566 1121.66798 1111.50151 1101.44995 1092.44056 1084.28758 1075.36679 1065.97206 1054.09747 1030.68527  999.81258  975.28839
  77.00000 1574.57035 1571.34703 1558.13893 1534.07691 1483.43895 1449.06277 1433.00236 1442.80314 1481.29344 1524.89416 1546.06539 1549.30221 1547.72427 1545.04992 1541.69081 1538.89675 1535.98606 1531.86598 1527.45226 1521.72105 1514.13232 1506.62504 1499.31056 1488.22685 1477.32185 1465.76760 1452.34229 1438.25622 1422.96753 1406.69948 1390.74722 1374.72614 1358.89771 1342.39502 1324.87068 1306.94313 1290.34801 1271.95029 1253.19609 1235.40675 1221.57754 1207.40178 1193.73031 1180.12388 1167.60206 1155.96423 1144.80355 1133.78887 1123.29470 1113.12729 1103.05768 1094.00435 1085.78085 1076.79136 1067.33182 1055.38503 1031.94413 1001.07755  976.51778
  78.00000 1575.57081 1572.49401 1559.43064 1535.69167 1485.33006 1451.35380 1434.99002 1444.11743 1482.39620 1525.76477 1546.86320 1549.85695 1548.13586 1545.36292 1542.00023 1539.18980 1536.26863 1532.16481 1527.81104 1522.08508 1514.55036 1507.09900 1499.85577 1488.87999 1478.08970 1466.60214 1453.30826 1439.32467 1424.09257 1407.83846 1391.84943 1375.80177 1359.85932 1343.26062 1325.64358 1307.68998 1291.09710 1272.71992 1254.04695 1236.35781 1222.61183 1208.52827 1194.94219 1181.42316 1168.97766 1157.40567 1146.29927 1135.32560 1124.85797 1114.69293 1104.60923 1095.51453 1087.22174 1078.16531 1068.64250 1056.62402 1033.15770 1002.30021  977.70125
  79.00000 1576.55561 1573.62422 1560.70981 1537.29555 1487.19960 1453.60317 1436.90409 1445.36899 1483.46009 1526.61780 1547.64053 1550.38723 1548.52770 1545.65902 1542.29242 1539.46792 1536.53633 1532.44852 1528.15620 1522.43354 1514.95076 1507.55251 1500.37925 1489.51348 1478.83842 1467.41718 1454.25684 1440.38237 1425.21230 1408.97765 1392.95212 1376.88017 1360.82045 1344.11838 1326.39935 1308.41425 1291.81673 1273.45055 1254.84960 1237.25198 1223.58330 1209.58889 1196.08583 1182.65300 1170.28334 1158.77772 1147.72665 1136.79596 1126.35771 1116.19820 1106.10427 1096.97080 1088.61008 1079.48859 1069.90424 1057.81495 1034.32670 1003.48124  978.83959
  80.00000 1577.52291 1574.73614 1561.97601 1538.88999 1489.05173 1455.81571 1438.75121 1446.56460 1484.48982 1527.45502 1548.39666 1550.89237 1548.89923 1545.93783 1542.56680 1539.73057 1536.78869 1532.71675 1528.48714 1522.76590 1515.33307 1507.98508 1500.88025 1490.12615 1479.56641 1468.21094 1455.18565 1441.42664 1426.32383 1410.11415 1394.05287 1377.95924 1361.77973 1344.96777 1327.13830 1309.11666 1292.50796 1274.14363 1255.60571 1238.09106 1224.49384 1210.58540 1197.16281 1183.81475 1171.52017 1160.08117 1149.08623 1138.20025 1127.79397 1117.64297 1107.54257 1098.37293 1089.94578 1080.76128 1071.11732 1058.95847 1035.45205 1004.62153  979.93379
  81.00000 1578.47080 1575.82818 1563.22884 1540.47649 1490.89072 1457.99648 1440.53851 1447.71158 1485.49047 1528.27831 1549.13102 1551.37179 1549.24995 1546.19898 1542.82284 1539.97724 1537.02525 1532.96913 1528.80323 1523.08162 1515.69688 1508.39623 1501.35797 1490.71682 1480.27204 1468.98159 1456.09230 1442.45470 1427.42415 1411.24494 1395.14915 1379.03677 1362.73566 1345.80818 1327.86072 1309.79796 1293.17187 1274.80061 1256.31704 1238.87696 1225.34544 1211.51970 1198.17485 1184.90989 1172.68939 1161.31695 1150.37866 1139.53887 1129.16693 1119.02727 1108.92403 1099.72084 1091.22890 1081.98357 1072.28216 1060.05543 1036.53484 1005.72208  980.98499
  82.00000 1579.39739 1576.89879 1564.46787 1542.05655 1492.72100 1460.15077 1442.27356 1448.81772 1486.46741 1529.08974 1549.84311 1551.82507 1549.57942 1546.44214 1543.06006 1540.20743 1537.24556 1533.20533 1529.10384 1523.38014 1516.04174 1508.78547 1501.81165 1491.28431 1480.95369 1469.72733 1456.97435 1443.46373 1428.51017 1412.36690 1396.23832 1380.11045 1363.68666 1346.63898 1328.56689 1310.45885 1293.80955 1275.42301 1256.98540 1239.61167 1226.14022 1212.39382 1199.12384 1185.94005 1173.79237 1162.48618 1151.60478 1140.81239 1130.47691 1120.35124 1110.24866 1101.01453 1092.45959 1083.15579 1073.39931 1061.10682 1037.57634 1006.78409  981.99451
  83.00000 1580.30078 1577.94639 1565.69265 1543.63166 1494.54708 1462.28405 1443.96430 1449.89118 1487.42629 1529.89144 1550.53257 1552.25188 1549.88731 1546.66707 1543.27802 1540.42070 1537.44924 1533.42504 1529.38838 1523.66095 1516.36725 1509.15238 1502.24057 1491.82746 1481.60970 1470.44634 1457.82938 1444.45087 1429.57876 1413.47682 1397.31770 1381.17787 1364.63110 1347.45946 1329.25705 1311.10006 1294.42212 1276.01239 1257.61268 1240.29731 1226.88042 1213.20991 1200.01176 1186.90703 1174.83064 1163.59009 1152.76557 1142.02153 1131.72437 1121.61516 1111.51656 1102.25413 1093.63815 1084.27838 1074.46948 1062.11379 1038.57797 1007.80885  982.96381
  84.00000 1581.17907 1578.96944 1566.90275 1545.20333 1496.37355 1464.40193 1445.61902 1450.94051 1488.37298 1530.68567 1551.19915 1552.65202 1550.17336 1546.87355 1543.47637 1540.61663 1537.63590 1533.62799 1529.65626 1523.92353 1516.67303 1509.49653 1502.64400 1492.34511 1482.23847 1471.13684 1458.65500 1445.41326 1430.62675 1414.57148 1398.38453 1382.23660 1365.56729 1348.26889 1329.93146 1311.72230 1295.01068 1276.57036 1258.20086 1240.93609 1227.56842 1213.97026 1200.84078 1187.81274 1175.80590 1164.63008 1153.86214 1143.16715 1132.90990 1122.81942 1112.72800 1103.43988 1094.76498 1085.35192 1075.49347 1063.07765 1039.54128 1008.79783  983.89450
  85.00000 1582.03042 1579.96642 1568.09775 1546.77303 1498.20502 1466.51010 1447.24623 1451.97452 1489.31352 1531.47477 1551.84272 1553.02543 1550.43741 1547.06143 1543.65482 1540.79486 1537.80522 1533.81393 1529.90691 1524.16741 1516.95870 1509.81757 1503.02131 1492.83617 1482.83842 1471.79709 1459.44885 1446.34806 1431.65099 1415.64763 1399.43607 1383.28414 1366.49350 1349.06653 1330.59036 1312.32630 1295.57640 1277.09857 1258.75196 1241.53029 1228.20667 1214.67726 1201.61315 1188.65923 1176.71994 1165.60770 1154.89577 1144.25024 1134.03425 1123.96458 1113.88332 1104.57214 1095.84059 1086.37709 1076.47226 1063.99985 1040.46798 1009.75259  984.78830
  86.00000 1582.85299 1580.93585 1569.27720 1548.34219 1500.04609 1468.61435 1448.85467 1453.00224 1490.25408 1532.26113 1552.46326 1553.37218 1550.67937 1547.23064 1543.81314 1540.95509 1537.95694 1533.98266 1530.13983 1524.39213 1517.22396 1510.11518 1503.37191 1493.29958 1483.40803 1472.42543 1460.20865 1447.25244 1432.64836 1416.70203 1400.46957 1384.31802 1367.40801 1349.85163 1331.23403 1312.91281 1296.12044 1277.59871 1259.26808 1242.08230 1228.79774 1215.33343 1202.33126 1189.44868 1177.57473 1166.52461 1155.86786 1145.27197 1135.09830 1125.05129 1114.98302 1105.65140 1096.86565 1087.35473 1077.40689 1064.88195 1041.35990 1010.67480  985.64705
  87.00000 1583.64504 1581.87628 1570.44068 1549.91221 1501.90136 1470.72045 1450.45321 1454.03286 1491.20093 1533.04717 1553.06085 1553.69245 1550.89926 1547.38117 1543.95120 1541.09707 1538.09082 1534.13403 1530.35452 1524.59729 1517.46854 1510.38911 1503.69525 1493.73435 1483.94585 1473.02026 1460.93222 1448.12369 1433.61576 1417.73149 1401.48229 1385.33575 1368.30908 1350.62346 1331.86273 1313.48259 1296.64400 1278.07252 1259.75136 1242.59457 1229.34428 1215.94135 1202.99760 1190.18339 1178.37234 1167.38264 1156.77998 1146.23361 1136.10306 1126.08036 1116.02772 1106.67824 1097.84090 1088.28575 1078.29859 1065.72567 1042.21897 1011.56624  986.47270
  88.00000 1584.40488 1582.78634 1571.58776 1551.48441 1503.77531 1472.83417 1452.05078 1455.07565 1492.16038 1533.83536 1553.63571 1553.98656 1551.09721 1547.51307 1544.06894 1541.22063 1538.20671 1534.26795 1530.55057 1524.78254 1517.69221 1510.63918 1503.99091 1494.13959 1484.45055 1473.58010 1461.61747 1448.95915 1434.55023 1418.73287 1402.47157 1386.33488 1369.19502 1351.38130 1332.47677 1314.03641 1297.14830 1278.52178 1260.20402 1243.06964 1229.84905 1216.50372 1203.61476 1190.86576 1179.11497 1168.18373 1157.63380 1147.13658 1137.04968 1127.05273 1117.01815 1107.65340 1098.76724 1089.17121 1079.14863 1066.53281 1043.04722 1012.42874  987.26726
  89.00000 1585.13088 1583.66472 1572.71802 1553.06003 1505.67236 1474.96123 1453.65635 1456.13990 1493.13870 1534.62814 1554.18814 1554.25496 1551.27342 1547.62648 1544.16639 1541.32565 1538.30448 1534.38436 1530.72760 1524.94759 1517.89481 1510.86527 1504.25851 1494.51450 1484.92086 1474.10359 1462.26246 1449.75629 1435.44886 1419.70312 1403.43480 1387.31303 1370.06417 1352.12446 1333.07648 1314.57508 1297.63460 1278.94830 1260.62831 1243.51010 1230.31485 1217.02333 1204.18544 1191.49831 1179.80495 1168.92992 1158.43113 1147.98245 1137.93945 1127.96946 1117.95516 1108.57770 1099.64567 1090.01226 1079.95845 1067.30528 1043.84677 1013.26424  988.03283
  90.00000 1585.82155 1584.51017 1573.83104 1554.64023 1507.59679 1477.10724 1455.27882 1457.23488 1494.14212 1535.42795 1554.71856 1554.49820 1551.42820 1547.72161 1544.24367 1541.41209 1538.38412 1534.48328 1530.88531 1525.09220 1518.07625 1511.06734 1504.49780 1494.85835 1485.35567 1474.58948 1462.86539 1450.51273 1436.30891 1420.63934 1404.36949 1388.26787 1370.91492 1352.85228 1333.66220 1315.09943 1298.10417 1279.35393 1261.02652 1243.91861 1230.74457 1217.50302 1204.71240 1192.08364 1180.44468 1169.62341 1159.17391 1148.77288 1138.77377 1128.83174 1118.83974 1109.45210 1100.47728 1090.81017 1080.72955 1068.04510 1044.61982 1014.07470  988.77155
  91.00000 1586.47546 1585.32154 1574.92641 1556.22606 1509.55268 1479.27764 1456.92698 1458.36973 1495.17678 1536.23715 1555.22749 1554.71698 1551.56195 1547.79875 1544.30099 1541.47998 1538.44564 1534.56478 1531.02346 1525.21621 1518.23650 1511.24544 1504.70861 1495.17058 1485.75399 1475.03668 1463.42464 1451.22622 1437.12777 1421.53872 1405.27325 1389.19719 1371.74574 1353.56417 1334.23433 1315.61034 1298.55832 1279.74056 1261.40101 1244.29786 1231.14113 1217.94570 1205.19849 1192.62445 1181.03668 1170.26646 1159.86418 1149.50969 1139.55418 1129.64089 1119.67299 1110.27767 1101.26330 1091.56630 1081.46353 1068.75434 1045.36859 1014.86214  989.48559
  92.00000 1587.09133 1586.09776 1576.00374 1557.81845 1511.54396 1481.47774 1458.60945 1459.55342 1496.24864 1537.05809 1555.71555 1554.91209 1551.67518 1547.85824 1544.33865 1541.52942 1538.48914 1534.62898 1531.14186 1525.31954 1518.37560 1511.39970 1504.89090 1495.45071 1486.11498 1475.44428 1463.93875 1451.89473 1437.90302 1422.39864 1406.14382 1390.09887 1372.55518 1354.25959 1334.79331 1316.10868 1298.99838 1280.11010 1261.75413 1244.65060 1231.50753 1218.35433 1205.64661 1193.12349 1181.58356 1170.86147 1160.50412 1150.19480 1140.28235 1130.39835 1120.45613 1111.05560 1102.00504 1092.28211 1082.16209 1069.43514 1046.09537 1015.62860  990.17716
  93.00000 1587.66798 1586.83788 1577.06262 1559.41821 1513.57428 1483.71259 1460.33461 1460.79468 1497.36348 1537.89298 1556.18344 1555.08444 1551.76847 1547.90054 1544.35704 1541.56061 1538.51478 1534.67608 1531.24043 1525.40215 1518.49367 1511.53036 1505.04473 1495.69841 1486.43796 1475.81150 1464.40650 1452.51639 1438.63244 1423.21667 1406.97911 1390.97093 1373.34189 1354.93808 1335.33963 1316.59540 1299.42573 1280.46448 1262.08828 1244.97959 1231.84677 1218.73193 1206.05973 1193.58362 1182.08800 1171.41091 1161.09597 1150.83022 1140.96005 1131.10567 1121.19049 1111.78717 1102.70394 1092.95916 1082.82698 1070.08971 1046.80248 1016.37614  990.84845
  94.00000 1588.20439 1587.54101 1578.10268 1561.02600 1515.64704 1485.98700 1462.11053 1462.10193 1498.52680 1538.74396 1556.63196 1555.23506 1551.84253 1547.92615 1544.35667 1541.57380 1538.52281 1534.70634 1531.31915 1525.46414 1518.59090 1511.63772 1505.17028 1495.91350 1486.72242 1476.13779 1464.82686 1453.08957 1439.31402 1423.99056 1407.77720 1391.81155 1374.10464 1355.59923 1335.87380 1317.07145 1299.84174 1280.80566 1262.40587 1245.28764 1232.16190 1219.08153 1206.44085 1194.00770 1182.55274 1171.91732 1161.64210 1151.41811 1141.58916 1131.76452 1121.87753 1112.47378 1103.36151 1093.59907 1083.46004 1070.72029 1047.49223 1017.10679  991.50167
  95.00000 1588.69968 1588.20643 1579.12352 1562.64231 1517.76537 1488.30548 1463.94495 1463.48325 1499.74385 1539.61303 1557.06199 1555.36506 1551.89811 1547.93567 1544.33810 1541.56933 1538.51355 1534.72007 1531.37809 1525.50563 1518.66760 1511.72221 1505.26786 1496.09595 1486.96804 1476.42278 1465.19904 1453.61288 1439.94599 1424.71830 1408.53636 1392.61905 1374.84232 1356.24275 1336.39641 1317.53783 1300.24784 1281.13561 1262.70932 1245.57755 1232.45597 1219.40619 1206.79300 1194.39867 1182.98061 1172.38335 1162.14495 1151.96068 1142.17167 1132.37668 1122.51879 1113.11693 1103.97936 1094.20356 1084.06316 1071.32914 1048.16693 1017.82258  992.13897
  96.00000 1589.15311 1588.83350 1580.12478 1564.26748 1519.93204 1490.67220 1465.84516 1464.94626 1501.01952 1540.50204 1557.47446 1555.47565 1551.93609 1547.92975 1544.30202 1541.54762 1538.48736 1534.71767 1531.41739 1525.52688 1518.72410 1511.78435 1505.33792 1496.24587 1487.17469 1476.66630 1465.52250 1454.08517 1440.52684 1425.39813 1409.25507 1393.39196 1375.55397 1356.86841 1336.90809 1317.99558 1300.64546 1281.45632 1263.00106 1245.85213 1232.73203 1219.70897 1207.11924 1194.75951 1183.37445 1172.81167 1162.60703 1152.46026 1142.70969 1132.94403 1123.11595 1113.71822 1104.55917 1094.77441 1084.63828 1071.91855 1048.82888 1018.52552  992.76247
  97.00000 1589.56411 1589.42170 1581.10609 1565.90167 1522.14947 1493.09097 1467.81799 1466.49810 1502.35832 1541.41268 1557.87040 1555.56814 1551.95740 1547.90913 1544.24919 1541.50918 1538.44472 1534.69957 1531.43729 1525.52822 1518.76088 1511.82475 1505.38104 1496.36356 1487.34246 1476.86840 1465.79696 1454.50557 1441.05533 1426.02853 1409.93204 1394.12897 1376.23875 1357.47611 1337.40953 1318.44577 1301.03606 1281.76977 1263.28350 1246.11420 1232.99312 1219.99294 1207.42261 1195.09319 1183.73716 1173.20504 1163.03094 1152.91924 1143.20538 1133.46856 1123.67076 1114.27934 1105.10274 1095.31346 1085.18738 1072.49081 1049.48034 1019.21756  993.37423
  98.00000 1589.93230 1589.97067 1582.06710 1567.54483 1524.41973 1495.56518 1469.86977 1468.14537 1503.76434 1542.34645 1558.25088 1555.64392 1551.96308 1547.87462 1544.18047 1541.45457 1538.38615 1534.66629 1531.43810 1525.51005 1518.77846 1511.84413 1505.39792 1496.44946 1487.47161 1477.02936 1466.02238 1454.87348 1441.53051 1426.60829 1410.56619 1394.82901 1376.89603 1358.06584 1337.90148 1318.88951 1301.42112 1282.07796 1263.55907 1246.36654 1233.24228 1220.26115 1207.70620 1195.40272 1184.07167 1173.56624 1163.41932 1153.34011 1143.66103 1133.95233 1124.18507 1114.80207 1105.61189 1095.82261 1085.71247 1073.04817 1050.12350 1019.90057  993.97623
  99.00000 1590.25744 1590.48015 1583.00745 1569.19674 1526.74445 1498.09781 1472.00620 1469.89407 1505.24122 1543.30464 1558.61704 1555.70443 1551.95422 1547.82708 1544.09679 1541.38446 1538.31226 1534.61841 1531.42025 1525.47290 1518.77748 1511.84332 1505.38942 1496.50422 1487.56265 1477.14970 1466.19903 1455.18861 1441.95174 1427.13647 1411.15673 1395.49121 1377.52530 1358.63768 1338.38472 1319.32793 1301.80212 1282.38287 1263.83014 1246.61192 1233.48248 1220.51662 1207.97303 1195.69111 1184.38091 1173.89811 1163.77488 1153.72541 1144.07897 1134.39751 1124.66085 1115.28829 1106.08854 1096.30381 1086.21558 1073.59289 1050.76052 1020.57638  994.57035
 100.00000 1590.53950 1590.95004 1583.92679 1570.85695 1529.12485 1500.69135 1474.23238 1471.74955 1506.79208 1544.28834 1558.97003 1555.75122 1551.93199 1547.76744 1543.99920 1541.29956 1538.22372 1534.55655 1531.38422 1525.41737 1518.75865 1511.82324 1505.35652 1496.52864 1487.61630 1477.23015 1466.32746 1455.45096 1442.31869 1427.61244 1411.70311 1396.11495 1378.12626 1359.19185 1338.86013 1319.76222 1302.18058 1282.68648 1264.09909 1246.85306 1233.71669 1220.76234 1208.22613 1195.96133 1184.66784 1174.20349 1164.10035 1154.07772 1144.46164 1134.80632 1125.10010 1115.73992 1106.53466 1096.75905 1086.69877 1074.12718 1051.39344 1021.24670  995.15838
 101.00000 1590.77861 1591.38037 1584.82479 1572.52481 1531.56168 1503.34780 1476.55273 1473.71642 1508.41953 1545.29839 1559.31108 1555.78585 1551.89763 1547.69671 1543.88879 1541.20068 1538.12127 1534.48141 1531.33062 1525.34415 1518.72276 1511.78491 1505.30035 1496.52370 1487.63352 1477.27171 1466.40848 1455.66085 1442.63135 1428.03588 1412.20505 1396.69984 1378.69877 1359.72869 1339.32862 1320.19357 1302.55800 1282.99075 1264.36823 1247.09266 1233.94779 1221.00126 1208.46847 1196.21637 1184.93539 1174.48524 1164.39851 1154.39969 1144.81150 1135.18110 1125.50496 1116.15898 1106.95228 1097.19034 1087.16407 1074.65319 1052.02425 1021.91316  995.74198
 102.00000 1590.97513 1591.77129 1585.70111 1574.19942 1534.05522 1506.06864 1478.97094 1475.79859 1510.12559 1546.33536 1559.64143 1555.80997 1551.85241 1547.61592 1543.76675 1541.08869 1538.00572 1534.39375 1531.26011 1525.25404 1518.67072 1511.72946 1505.22218 1496.49057 1487.61547 1477.27561 1466.44325 1455.81894 1442.89007 1428.40683 1412.66256 1397.24573 1379.24291 1360.24863 1339.79115 1320.62322 1302.93592 1283.29760 1264.63985 1247.33333 1234.17862 1221.23624 1208.70299 1196.45917 1185.18648 1174.74622 1164.67215 1154.69401 1145.13109 1135.52419 1125.87758 1116.54755 1107.34346 1097.59972 1087.61353 1075.17301 1052.65479 1022.57725  996.32268
 103.00000 1591.12957 1592.12314 1586.55541 1575.87968 1536.60527 1508.85481 1481.48995 1477.99912 1511.91171 1547.39959 1559.96233 1555.82525 1551.79769 1547.52617 1543.63434 1540.96452 1537.87793 1534.29435 1531.17345 1525.14793 1518.60349 1511.65812 1505.12341 1496.43060 1487.56356 1477.24333 1466.43317 1455.92619 1443.09552 1428.72563 1413.07594 1397.75275 1379.75893 1360.75226 1340.24876 1321.05244 1303.31583 1283.60895 1264.91619 1247.57765 1234.41192 1221.47010 1208.93257 1196.69260 1185.42401 1174.98931 1164.92407 1154.96338 1145.42300 1135.83805 1126.22023 1116.90777 1107.71031 1097.98925 1088.04917 1075.68867 1053.28679 1023.24035  996.90184
 104.00000 1591.24265 1592.43636 1587.38737 1577.56423 1539.21110 1511.70667 1484.11187 1480.32028 1513.77869 1548.49111 1560.27505 1555.83340 1551.73486 1547.42861 1543.49288 1540.82918 1537.73884 1534.18409 1531.07150 1525.02677 1518.52212 1511.57220 1505.00558 1496.34531 1487.47943 1477.17658 1466.37999 1455.98392 1443.24872 1428.99298 1413.44578 1398.22128 1380.24728 1361.24026 1340.70251 1321.48250 1303.69927 1283.92668 1265.19940 1247.82810 1234.65035 1221.70556 1209.15998 1196.91951 1185.65084 1175.21734 1165.15708 1155.21053 1145.68984 1136.12514 1126.53519 1117.24182 1108.05496 1098.36100 1088.47298 1076.20207 1053.92188 1023.90370  997.48068
 105.00000 1591.31528 1592.71156 1588.19665 1579.25148 1541.87146 1514.62398 1486.83801 1482.76343 1515.72668 1549.60967 1560.58087 1555.83613 1551.66533 1547.32444 1543.34376 1540.68373 1537.58943 1534.06386 1530.95519 1524.89165 1518.42776 1511.47310 1504.87036 1496.23640 1487.36495 1477.07735 1466.28574 1455.99378 1443.35107 1429.20994 1413.77297 1398.65197 1380.70864 1361.71345 1341.15354 1321.91472 1304.08773 1284.25260 1265.49161 1248.08708 1234.89649 1221.94527 1209.38797 1197.14267 1185.86978 1175.43311 1165.37399 1155.43819 1145.93427 1136.38799 1126.82483 1117.55192 1108.37956 1098.71701 1088.88691 1076.71507 1054.56149 1024.56838  998.06025
 106.00000 1591.34858 1592.94948 1588.98295 1580.93961 1544.58458 1517.60591 1489.66879 1485.32904 1517.75518 1550.75473 1560.88105 1555.83520 1551.59058 1547.21486 1543.18841 1540.52927 1537.43075 1533.93461 1530.82553 1524.74370 1518.32161 1511.36233 1504.71954 1496.10577 1487.22222 1476.94784 1466.15274 1455.95775 1443.40431 1429.37791 1414.05871 1399.04575 1381.14387 1362.17278 1341.60303 1322.35041 1304.48272 1284.58850 1265.79483 1248.35691 1235.15279 1222.19174 1209.61914 1197.36478 1186.08358 1175.63941 1165.57755 1155.64912 1146.15894 1136.62916 1127.09154 1117.84036 1108.68628 1099.05934 1089.29288 1077.22936 1055.20693 1025.23532  998.64139
 107.00000 1591.34385 1593.15102 1589.74594 1582.62654 1547.34812 1520.65101 1492.60375 1488.01665 1519.86298 1551.92542 1561.17686 1555.83234 1551.51208 1547.10113 1543.02834 1540.36699 1537.26388 1533.79734 1530.68362 1524.58416 1518.20497 1511.24147 1504.55504 1495.95545 1487.05355 1476.79051 1465.98363 1455.87816 1443.41053 1429.49864 1414.30449 1399.40380 1381.55404 1362.61931 1342.05219 1322.79090 1304.88571 1284.93612 1266.11101 1248.63979 1235.42158 1222.44741 1209.85601 1197.58843 1186.29490 1175.83895 1165.77054 1155.84603 1146.36653 1136.85121 1127.33775 1118.10941 1108.97730 1099.39002 1089.69274 1077.74655 1055.85933 1025.90527  999.22478
 108.00000 1591.30257 1593.31720 1590.48529 1584.30995 1550.15919 1523.75717 1495.64150 1490.82483 1522.04817 1553.12056 1561.46952 1555.82929 1551.43134 1546.98453 1542.86508 1540.19808 1537.08995 1533.65306 1530.53061 1524.41434 1518.07919 1511.11216 1504.37891 1495.78767 1486.86149 1476.60803 1465.78133 1455.75764 1443.37218 1429.57424 1414.51210 1399.72759 1381.94041 1363.05421 1342.50228 1323.23755 1305.29816 1285.29710 1266.44199 1248.93781 1235.70508 1222.71455 1210.10099 1197.81614 1186.50635 1176.03441 1165.95564 1156.03163 1146.55973 1137.05674 1127.56590 1118.36139 1109.25479 1099.71104 1090.08828 1078.26809 1056.51965 1026.57879  999.81085
 109.00000 1591.22644 1593.44919 1591.20070 1585.98728 1553.01435 1526.92167 1498.77973 1493.75117 1524.30812 1554.33867 1561.76022 1555.82777 1551.34986 1546.86636 1542.70019 1540.02381 1536.91015 1533.50284 1530.36774 1524.23562 1517.94569 1510.97614 1504.19328 1495.60479 1486.64878 1476.40332 1465.54903 1455.59920 1443.29206 1429.60718 1414.68365 1400.01886 1382.30448 1363.47879 1342.95459 1323.69168 1305.72147 1285.67304 1266.78953 1249.25295 1236.00535 1222.99534 1210.35637 1198.05030 1186.72042 1176.22837 1166.13552 1156.20860 1146.74118 1137.24835 1127.77848 1118.59862 1109.52089 1100.02437 1090.48120 1078.79530 1057.18865 1027.25629 1000.39988
 110.00000 1591.11729 1593.54829 1591.89184 1587.65572 1555.90961 1530.14113 1502.01520 1496.79228 1526.63949 1555.57793 1562.05013 1555.82946 1551.26916 1546.74791 1542.53528 1539.84546 1536.72567 1533.34777 1530.19632 1524.04947 1517.80596 1510.83519 1504.00041 1495.40935 1486.41839 1476.17950 1465.29022 1455.40614 1443.17333 1429.60025 1414.82152 1400.27961 1382.64789 1363.89445 1343.41045 1324.15463 1306.15706 1286.06547 1267.15528 1249.58704 1236.32432 1223.29179 1210.62427 1198.29320 1186.93952 1176.42334 1166.31278 1156.37957 1146.91355 1137.42862 1127.97796 1118.82344 1109.77776 1100.33192 1090.87315 1079.32936 1057.86691 1027.93796 1000.99187
 111.00000 1590.97718 1593.61593 1592.55839 1589.31226 1558.84039 1533.41152 1505.34370 1499.94378 1529.03822 1556.83619 1562.34034 1555.83601 1551.19073 1546.63050 1542.37197 1539.66436 1536.53775 1533.18896 1530.01770 1523.85741 1517.66152 1510.69118 1503.80263 1495.20400 1486.17346 1475.93990 1465.00863 1455.18206 1443.01945 1429.55659 1414.92839 1400.51209 1382.97253 1364.30270 1343.87119 1324.62774 1306.60625 1286.47583 1267.54076 1249.94180 1236.66374 1223.60577 1210.90672 1198.54698 1187.16595 1176.62175 1166.48994 1156.54713 1147.07944 1137.60012 1128.16682 1119.03816 1110.02748 1100.63555 1091.26565 1079.87128 1058.55480 1028.62380 1001.58664
 112.00000 1590.80829 1593.65368 1593.20005 1590.95362 1561.80159 1536.72816 1508.76007 1503.20026 1531.49950 1558.11099 1562.63190 1555.84902 1551.11605 1546.51542 1542.21188 1539.48183 1536.34766 1533.02754 1529.83331 1523.66101 1517.51397 1510.54600 1503.60237 1494.99157 1485.91731 1475.68806 1464.70827 1454.93088 1442.83424 1429.47967 1415.00722 1400.71882 1383.28043 1364.70516 1344.33819 1325.11230 1307.07035 1286.90545 1267.94738 1250.31877 1237.02524 1223.93898 1211.20556 1198.81367 1187.40186 1176.82592 1166.66945 1156.71379 1147.24143 1137.76543 1128.34753 1119.24509 1110.27214 1100.93707 1091.66016 1080.42190 1059.25250 1029.31360 1002.18377
 113.00000 1590.61300 1593.66320 1593.81648 1592.57631 1564.78756 1540.08576 1512.25822 1506.55535 1534.01782 1559.39954 1562.92580 1555.87004 1551.04658 1546.40398 1542.05665 1539.29924 1536.15667 1532.86465 1529.64460 1523.46192 1517.36493 1510.40158 1503.40214 1494.77495 1485.65345 1475.42766 1464.39334 1454.65681 1442.62181 1429.37328 1415.06123 1400.90255 1383.57381 1365.10353 1344.81281 1325.60962 1307.55059 1287.35559 1268.37642 1250.71936 1237.41022 1224.29298 1211.52248 1199.09513 1187.64930 1177.03807 1166.85367 1156.88202 1147.40205 1137.92704 1128.52254 1119.44651 1110.51375 1101.23820 1092.05800 1080.98190 1059.95997 1030.00696 1002.78260
 114.00000 1590.39382 1593.64628 1594.40739 1594.17665 1567.79209 1543.47835 1515.83111 1510.00166 1536.58698 1560.69874 1563.22293 1555.90052 1550.98374 1546.29744 1541.90790 1539.11794 1535.96607 1532.70144 1529.45308 1523.26182 1517.21606 1510.25991 1503.20449 1494.55718 1485.38554 1475.16258 1464.06830 1454.36429 1442.38656 1429.24148 1415.09390 1401.06627 1383.85506 1365.49960 1345.29643 1326.12094 1308.04817 1287.82741 1268.82902 1251.14482 1237.81995 1224.66911 1211.85901 1199.39309 1187.91016 1177.26028 1167.04485 1157.05418 1147.56377 1138.08744 1128.69427 1119.64466 1110.75427 1101.54059 1092.46040 1081.55178 1060.67695 1030.70326 1003.38225
 115.00000 1590.15338 1593.60481 1594.97244 1595.75075 1570.80849 1546.89940 1519.47080 1513.53085 1539.20008 1562.00520 1563.52410 1555.94186 1550.92892 1546.19706 1541.76723 1538.93931 1535.77715 1532.53907 1529.26030 1523.06244 1517.06904 1510.12298 1503.01203 1494.34137 1485.11735 1474.89684 1463.73779 1454.05806 1442.13318 1429.08866 1415.10895 1401.21317 1384.12672 1365.89522 1345.79041 1326.64749 1308.56418 1288.32194 1269.30620 1251.59622 1238.25550 1225.06859 1212.21651 1199.70910 1188.18621 1177.49453 1167.24513 1157.23256 1147.72898 1138.24905 1128.86510 1119.84176 1110.99563 1101.84582 1092.86845 1082.13186 1061.40299 1031.40169 1003.98160
 116.00000 1589.89446 1593.54077 1595.51133 1597.29451 1573.82956 1550.34175 1523.16842 1517.13363 1541.84954 1563.31522 1563.83005 1555.99534 1550.88342 1546.10404 1541.63624 1538.76470 1535.59120 1532.37869 1529.06782 1522.86552 1516.92557 1509.99280 1502.82741 1494.13073 1484.85279 1474.63455 1463.40661 1453.74303 1441.86660 1428.91942 1415.11031 1401.34667 1384.39148 1366.29234 1346.29610 1327.19044 1309.09967 1288.84010 1269.80880 1252.07447 1238.71775 1225.49239 1212.59615 1200.04457 1188.47904 1177.74264 1167.45656 1157.41934 1147.90000 1138.41422 1129.03737 1120.03996 1111.23963 1102.15535 1093.28314 1082.72226 1062.13742 1032.10123 1004.57932
 117.00000 1589.61995 1593.45623 1596.02374 1598.80371 1576.84761 1553.79768 1526.91425 1520.79979 1544.52716 1564.62482 1564.14140 1556.06215 1550.84850 1546.01956 1541.51647 1538.59545 1535.40951 1532.22143 1528.87724 1522.67285 1516.78737 1509.87137 1502.65330 1493.92851 1484.59587 1474.37998 1463.07973 1453.42436 1441.59197 1428.73863 1415.10211 1401.47035 1384.65213 1366.69291 1346.81483 1327.75089 1309.65558 1289.38270 1270.33754 1252.58030 1239.20737 1225.94135 1212.99891 1200.40070 1188.79010 1178.00631 1167.68102 1157.61659 1148.07906 1138.58524 1129.21335 1120.24135 1111.48803 1102.47055 1093.70531 1083.32294 1062.87933 1032.80065 1005.17384
 118.00000 1589.33282 1593.35333 1596.50937 1600.27392 1579.85454 1557.25891 1530.69777 1524.51824 1547.22413 1565.92976 1564.45865 1556.14337 1550.82535 1545.94472 1541.40940 1538.43289 1535.23333 1532.06843 1528.69015 1522.48622 1516.65614 1509.76070 1502.49236 1493.73799 1484.35066 1474.13743 1462.76224 1453.10737 1441.31467 1428.55136 1415.08868 1401.58796 1384.91158 1367.09896 1347.34788 1328.32991 1310.23278 1289.95042 1270.89296 1253.11426 1239.72486 1226.41607 1213.42559 1200.77854 1189.12066 1178.28708 1167.92030 1157.82626 1148.26829 1138.76431 1129.39524 1120.44795 1111.74250 1102.79268 1094.13567 1083.93366 1063.62766 1033.49853 1005.76336
 119.00000 1589.03612 1593.23427 1596.96789 1601.70063 1582.84179 1560.71668 1534.50762 1528.27706 1549.93109 1567.22556 1564.78222 1556.23994 1550.81507 1545.88059 1541.31648 1538.27831 1535.06390 1531.92078 1528.50816 1522.30742 1516.53359 1509.66276 1502.34727 1493.56251 1484.12130 1473.91127 1462.45932 1452.79749 1441.04022 1428.36288 1415.07449 1401.70338 1385.17285 1367.51251 1347.89651 1328.92846 1310.83201 1290.54379 1271.47544 1253.67670 1240.27050 1226.91698 1213.87681 1201.17895 1189.47181 1178.58632 1168.17600 1158.05017 1148.46969 1138.95354 1129.58517 1120.66171 1112.00460 1103.12291 1094.57479 1084.55400 1064.38109 1034.19326 1006.34590
 120.00000 1588.73296 1593.10130 1597.39902 1603.07919 1585.80045 1564.16172 1538.33175 1532.06357 1552.63812 1568.50752 1565.11239 1556.35269 1550.81866 1545.82814 1541.23906 1538.13295 1534.90243 1531.77956 1528.33286 1522.13826 1516.42139 1509.57948 1502.22063 1493.40537 1483.91192 1473.70591 1462.17621 1452.50031 1440.77428 1428.17859 1415.06412 1401.82063 1385.43900 1367.93562 1348.46189 1329.54745 1311.45395 1291.16322 1272.08522 1254.26779 1240.84437 1227.44429 1214.35296 1201.60260 1189.84449 1178.90525 1168.44961 1158.29002 1148.68518 1139.15492 1129.78517 1120.88447 1112.27578 1103.46226 1095.02309 1085.18333 1065.13813 1034.88307 1006.91926
 121.00000 1588.42650 1592.95671 1597.80245 1604.40488 1588.72128 1567.58435 1542.15741 1535.86433 1555.33488 1569.77072 1565.44929 1556.48228 1550.83701 1545.78829 1541.17843 1537.99802 1534.75008 1531.64581 1528.16583 1521.98049 1516.32120 1509.51275 1502.11505 1493.26987 1483.72668 1473.52573 1461.91817 1452.22146 1440.52264 1428.00403 1415.06227 1401.94380 1385.71315 1368.37032 1349.04514 1330.18767 1312.09911 1291.80895 1272.72233 1254.88751 1241.44633 1227.99801 1214.85427 1202.04997 1190.23942 1179.24492 1168.74243 1158.54735 1148.91652 1139.37034 1129.99718 1121.11800 1112.55740 1103.81163 1095.48086 1085.82088 1065.89712 1035.56598 1007.48104
 122.00000 1588.11989 1592.80280 1598.17788 1605.67290 1591.59471 1570.97450 1545.97125 1539.66528 1558.01057 1571.01010 1565.79295 1556.62922 1550.87093 1545.76184 1541.13577 1537.87466 1534.60797 1531.52052 1528.00862 1521.83588 1516.23462 1509.46440 1502.03302 1493.15923 1483.56968 1473.37509 1461.69046 1451.96662 1440.29111 1427.84480 1415.07369 1402.07704 1385.99843 1368.81861 1349.64729 1330.84982 1312.76791 1292.48110 1273.38667 1255.53564 1242.07607 1228.57798 1215.38073 1202.52134 1190.65717 1179.60620 1169.05562 1158.82355 1149.16534 1139.60156 1130.22302 1121.36392 1112.85068 1104.17182 1095.94823 1086.46567 1066.65620 1036.23987 1008.02868
 123.00000 1587.81628 1592.64187 1598.52505 1606.87845 1594.41097 1574.32177 1549.75939 1543.45179 1560.65408 1572.22045 1566.14324 1556.79386 1550.92105 1545.74952 1541.11216 1537.76395 1534.47716 1531.40464 1527.86274 1521.70613 1516.16319 1509.43617 1501.97698 1493.07663 1483.44497 1473.25826 1461.49828 1451.74146 1440.08554 1427.70655 1415.10315 1402.22452 1386.29798 1369.28247 1350.26927 1331.53446 1313.46064 1293.17961 1274.07792 1256.21178 1242.73304 1229.18378 1215.93216 1203.01681 1191.09810 1179.98977 1169.39014 1159.11985 1149.43312 1139.85020 1130.46440 1121.62377 1113.15672 1104.54345 1096.42519 1087.11656 1067.41336 1036.90249 1008.55945
 124.00000 1587.51881 1592.47622 1598.84367 1608.01672 1597.16008 1577.61549 1553.50751 1547.20874 1563.25400 1573.39647 1566.49990 1556.97638 1550.98792 1545.75194 1541.10855 1537.66687 1534.35864 1531.29906 1527.72964 1521.59290 1516.10840 1509.42969 1501.94923 1493.02513 1483.35648 1473.17942 1461.34674 1451.55158 1439.91174 1427.59491 1415.15541 1402.39041 1386.61489 1369.76378 1350.91190 1332.24206 1314.17743 1293.90426 1274.79563 1256.91531 1243.41649 1229.81485 1216.50817 1203.53628 1191.56238 1180.39616 1169.74681 1159.43731 1149.72119 1140.11774 1130.72289 1121.89894 1113.47649 1104.92703 1096.91157 1087.77224 1068.16642 1037.55145 1009.07050
 125.00000 1587.23052 1592.30810 1599.13348 1609.08293 1599.83192 1580.84479 1557.20091 1550.92063 1565.79876 1574.53278 1566.86249 1557.17676 1551.07190 1545.76959 1541.12575 1537.58434 1534.25332 1531.20462 1527.61073 1521.49777 1516.07164 1509.44652 1501.95194 1493.00764 1483.30801 1473.14258 1461.24081 1451.40252 1439.77545 1427.51547 1415.23518 1402.57884 1386.95221 1370.26435 1351.57588 1332.97292 1314.91827 1294.65468 1275.53914 1257.64543 1244.12549 1230.47039 1217.10816 1204.07945 1192.04999 1180.82566 1170.12624 1159.77682 1150.03070 1140.40551 1130.99990 1122.19069 1113.81082 1105.32292 1097.40706 1088.43127 1068.91309 1038.18424 1009.55882
 126.00000 1586.95438 1592.13973 1599.39426 1610.07238 1602.41633 1583.99866 1560.82465 1554.57168 1568.27663 1575.62399 1567.23046 1557.39480 1551.17324 1545.80284 1541.16444 1537.51716 1534.16203 1531.12207 1527.50733 1521.42228 1516.05423 1509.48804 1501.98712 1493.02693 1483.30316 1473.15158 1461.18526 1451.29962 1439.68227 1427.47371 1415.34707 1402.79383 1387.31285 1370.78587 1352.26176 1333.72720 1315.68299 1295.43031 1276.30761 1258.40115 1244.85889 1231.14942 1217.73137 1204.64582 1192.56073 1181.27842 1170.52886 1160.13907 1150.36264 1140.71467 1131.29673 1122.50012 1114.16037 1105.73134 1097.91122 1089.09204 1069.65097 1038.79827 1010.02132
 127.00000 1586.69323 1591.97323 1599.62577 1610.98050 1604.90314 1587.06603 1564.36366 1558.14594 1570.67591 1576.66475 1567.60307 1557.63009 1551.29197 1545.85191 1541.22512 1537.46604 1534.08552 1531.05209 1527.42067 1521.36783 1516.05735 1509.55551 1502.05661 1493.08556 1483.34534 1473.21001 1461.18464 1451.24803 1439.63762 1427.47495 1415.49554 1403.03930 1387.69964 1371.32990 1352.96994 1334.50488 1316.47125 1296.23043 1277.10005 1259.18127 1245.61536 1231.85076 1218.37680 1205.23473 1193.09418 1181.75437 1170.95490 1160.52459 1150.71781 1141.04620 1131.61447 1122.82820 1114.52568 1106.15236 1098.42344 1089.75281 1070.37755 1039.39088 1010.45486
 128.00000 1586.44977 1591.81065 1599.82781 1611.80286 1607.28228 1590.03586 1567.80282 1561.62744 1572.98497 1577.64977 1567.97943 1557.88202 1551.42800 1545.91689 1541.30812 1537.43156 1534.02442 1530.99529 1527.35188 1521.33575 1516.08209 1509.65003 1502.16200 1493.18584 1483.43767 1473.32118 1461.24318 1451.25264 1439.64666 1427.52429 1415.68485 1403.31895 1388.11519 1371.89784 1353.70064 1335.30579 1317.28253 1297.05414 1277.91526 1259.98442 1246.39338 1232.57307 1219.04331 1205.84529 1193.64977 1182.25325 1171.40441 1160.93369 1151.09681 1141.40091 1131.95407 1123.17570 1114.90711 1106.58590 1098.94299 1090.41175 1071.09028 1039.95939 1010.85622
 129.00000 1586.22649 1591.65391 1600.00022 1612.53524 1609.54383 1592.89724 1571.12715 1565.00028 1575.19235 1578.57389 1568.35848 1558.14974 1551.58101 1545.99771 1541.41358 1537.41417 1533.97926 1530.95216 1527.30197 1521.32723 1516.12937 1509.77249 1502.30466 1493.32984 1483.58295 1473.48806 1461.36476 1451.31800 1439.71423 1427.62654 1415.91901 1403.63629 1388.56193 1372.49088 1354.45387 1336.12954 1318.11615 1297.90036 1278.75188 1260.80905 1247.19125 1233.31481 1219.72955 1206.47646 1194.22669 1182.77462 1171.87723 1161.36649 1151.50007 1141.77939 1132.31627 1123.54324 1115.30487 1107.03172 1099.46899 1091.06691 1071.78653 1040.50108 1011.22219
 130.00000 1586.02567 1591.50478 1600.14284 1613.17368 1611.67812 1595.63945 1574.32188 1568.24884 1577.28696 1579.43216 1568.73901 1558.43221 1551.75051 1546.09412 1541.54143 1537.41417 1533.95042 1530.92313 1527.27185 1521.34333 1516.19997 1509.92359 1502.48570 1493.51929 1483.78365 1473.71326 1461.55286 1451.44826 1439.84481 1427.78618 1416.20171 1403.99453 1389.04203 1373.11000 1355.22946 1336.97554 1318.97119 1298.76781 1279.60837 1261.65341 1248.00709 1234.07428 1220.43401 1207.12700 1194.82399 1183.31783 1172.37301 1161.82292 1151.92777 1142.18205 1132.70163 1123.93125 1115.71898 1107.48945 1100.00045 1091.71625 1072.46369 1041.01325 1011.54956
 131.00000 1585.84932 1591.36487 1600.25557 1613.71451 1613.67584 1598.25210 1577.37268 1571.35788 1579.25809 1580.21986 1569.11964 1558.72813 1551.93580 1546.20571 1541.69137 1537.43173 1533.93818 1530.90848 1527.26224 1521.38495 1516.29451 1510.10380 1502.70589 1493.75559 1484.04179 1473.99893 1461.81047 1451.64712 1440.04240 1428.00727 1416.53630 1404.39657 1389.55737 1373.75593 1356.02699 1337.84298 1319.84657 1299.65504 1280.48303 1262.51559 1248.83886 1234.84962 1221.15502 1207.79552 1195.44052 1183.88206 1172.89119 1162.30267 1152.37992 1142.60910 1133.11050 1124.33996 1116.14931 1107.95854 1100.53625 1092.35769 1073.11916 1041.49327 1011.83520
 132.00000 1585.69913 1591.23559 1600.33833 1614.15444 1615.52811 1600.72524 1580.26573 1574.31275 1581.09564 1580.93259 1569.49882 1559.03595 1552.13595 1546.33188 1541.86288 1537.46684 1533.94268 1530.90842 1527.27373 1521.45283 1516.41340 1510.31334 1502.96570 1494.03973 1484.35894 1474.34673 1462.14003 1451.91771 1440.31049 1428.29335 1416.92565 1404.84491 1390.10948 1374.42912 1356.84578 1338.73082 1320.74096 1300.56040 1281.37398 1263.39353 1249.68440 1235.63884 1221.89075 1208.48045 1196.07496 1184.46628 1173.43102 1162.80525 1152.85627 1143.06049 1133.54302 1124.76941 1116.59554 1108.43833 1101.07515 1092.98910 1073.75039 1041.93857 1012.07605
 133.00000 1585.57646 1591.11814 1600.39111 1614.49059 1617.22662 1603.04943 1582.98800 1577.09954 1582.79023 1581.56636 1569.87485 1559.35390 1552.34982 1546.47181 1542.05519 1537.51930 1533.96387 1530.92301 1527.30672 1521.54751 1516.55687 1510.55216 1503.26521 1494.37228 1484.73615 1474.75776 1462.54336 1452.26257 1440.65194 1428.64744 1417.37217 1405.34157 1390.69949 1375.12970 1357.68489 1339.63776 1321.65284 1301.48207 1282.27917 1264.28500 1250.54138 1236.43979 1222.63922 1209.18008 1196.72582 1185.06929 1173.99154 1163.32994 1153.35636 1143.53598 1133.99908 1125.21942 1117.05717 1108.92797 1101.61583 1093.60834 1074.35492 1042.34673 1012.26922
 134.00000 1585.48228 1591.01345 1600.41392 1614.72055 1618.76370 1605.21593 1585.52732 1579.70530 1584.33333 1582.11762 1570.24585 1559.67996 1552.57603 1546.62451 1542.26722 1537.58876 1534.00157 1530.95219 1527.36143 1521.66934 1516.72489 1510.81991 1503.60409 1494.75331 1485.17388 1475.23252 1463.02160 1452.68354 1441.06894 1429.07187 1417.87767 1405.88808 1391.32811 1375.85743 1358.54310 1340.56223 1322.58042 1302.41801 1283.19642 1265.18762 1251.40735 1237.25021 1223.39835 1209.89254 1197.39147 1185.68970 1174.57158 1163.87580 1153.87952 1144.03506 1134.47838 1125.68959 1117.53351 1109.42650 1102.15686 1094.21328 1074.93042 1042.71548 1012.41197
 135.00000 1585.41709 1590.92217 1600.40684 1614.84246 1620.13246 1607.21679 1587.87267 1582.11820 1585.71745 1582.58338 1570.60979 1560.01182 1552.81296 1546.78875 1542.49766 1537.67464 1534.05543 1530.99577 1527.43787 1521.81842 1516.91724 1511.11594 1503.98160 1495.18237 1485.67193 1475.77080 1463.57511 1453.18165 1441.56287 1429.56826 1418.44332 1406.48539 1391.99553 1376.61171 1359.41884 1341.50239 1323.52171 1303.36600 1284.12337 1266.09889 1252.27977 1238.06774 1224.16593 1210.61587 1198.07010 1186.32595 1175.16979 1164.44168 1154.42480 1144.55701 1134.98032 1126.17931 1118.02370 1109.93279 1102.69673 1094.80182 1075.47473 1043.04276 1012.50181
 136.00000 1585.38094 1590.84463 1600.37002 1614.85509 1621.32694 1609.04501 1590.01430 1584.32782 1586.93633 1582.96128 1570.96448 1560.34694 1553.05872 1546.96308 1542.74487 1537.77616 1534.12489 1531.05342 1527.53580 1521.99463 1517.13339 1511.43923 1504.39648 1495.65842 1486.22941 1476.37166 1464.20339 1453.75710 1442.13426 1430.13739 1419.06959 1407.13377 1392.70140 1377.39148 1360.31024 1342.45607 1324.47444 1304.32364 1285.05754 1267.01618 1253.15599 1238.88994 1224.93964 1211.34794 1198.75978 1186.97632 1175.78461 1165.02621 1154.99103 1145.10082 1135.50408 1126.68771 1118.52667 1110.44560 1103.23387 1095.37196 1075.98591 1043.32677 1012.53654
 137.00000 1585.37331 1590.78083 1600.30367 1614.75787 1622.34219 1610.69467 1591.94404 1586.32530 1587.98506 1583.24967 1571.30758 1560.68250 1553.31119 1547.14580 1543.00688 1537.89231 1534.20922 1531.12465 1527.65476 1522.19758 1517.37256 1511.78843 1504.84700 1496.17979 1486.84466 1477.03331 1464.90502 1454.40908 1442.78264 1430.77912 1419.75609 1407.83278 1393.44474 1378.19525 1361.21502 1343.42081 1325.43608 1305.28832 1285.99631 1267.93675 1254.03331 1239.71428 1225.71710 1212.08655 1199.45845 1187.63891 1176.41430 1165.62779 1155.57679 1145.66526 1136.04856 1127.21371 1119.04119 1110.96354 1103.76667 1095.92178 1076.46227 1043.56601 1012.51429
 138.00000 1585.39310 1590.73036 1600.20806 1614.55100 1623.17446 1612.16110 1593.65544 1588.10363 1588.86032 1583.44773 1571.63660 1561.01542 1553.56794 1547.33499 1543.28141 1538.02186 1534.30749 1531.20882 1527.79403 1522.42659 1517.63366 1512.16177 1505.33083 1496.74412 1487.51514 1477.75310 1465.67755 1455.13574 1443.50648 1431.49229 1420.50159 1408.58117 1394.22392 1379.02098 1362.13057 1344.39380 1326.40384 1306.25723 1286.93691 1268.85778 1254.90896 1240.53820 1226.49588 1212.82943 1200.16394 1188.31169 1177.05693 1166.24461 1156.18041 1146.24879 1136.61240 1127.75595 1119.56581 1111.48510 1104.29346 1096.44951 1076.90247 1043.75935 1012.43359
 139.00000 1585.43856 1590.69240 1600.08358 1614.23553 1623.82129 1613.44104 1595.14408 1589.65788 1589.56059 1583.55554 1571.94892 1561.34234 1553.82630 1547.52846 1543.56583 1538.16331 1534.41853 1531.30512 1527.95259 1522.68067 1517.91529 1512.55705 1505.84506 1497.34829 1488.23741 1478.52737 1466.51740 1455.93406 1444.30308 1432.27463 1421.30384 1409.37677 1395.03655 1379.86610 1363.05381 1345.37187 1327.37464 1307.22741 1287.87650 1269.77636 1255.78016 1241.35910 1227.27347 1213.57420 1200.87398 1188.99247 1177.71037 1166.87464 1156.79995 1146.84964 1137.19394 1128.31284 1120.09891 1112.00865 1104.81259 1096.95356 1077.30550 1043.90606 1012.29343
 140.00000 1585.50722 1590.66567 1599.93068 1613.81343 1624.28172 1614.53282 1596.40778 1590.98548 1590.08629 1583.57420 1572.24176 1561.65963 1554.08327 1547.72373 1543.85710 1538.31492 1534.54097 1531.41259 1528.12912 1522.95853 1518.21569 1512.97167 1506.38615 1497.98841 1489.00703 1479.35141 1467.41979 1456.79975 1445.16844 1433.12262 1422.15954 1410.21648 1395.87942 1380.72743 1363.98127 1346.35150 1328.34512 1308.19566 1288.81210 1270.68952 1256.64411 1242.17441 1228.04738 1214.31847 1201.58622 1189.67895 1178.37233 1167.51563 1157.43323 1147.46572 1137.79123 1128.88251 1120.63865 1112.53246 1105.32237 1097.43256 1077.67081 1044.00591 1012.09333
 141.00000 1585.59585 1590.64838 1599.74993 1613.28765 1624.55642 1615.43652 1597.44688 1592.08650 1590.44011 1583.50594 1572.51225 1561.96338 1554.33560 1547.91808 1544.15185 1538.47466 1534.67318 1531.53008 1528.32200 1523.25850 1518.53275 1513.40250 1506.94985 1498.65970 1489.81850 1480.21940 1468.37863 1457.72714 1446.09716 1434.03142 1423.06421 1411.09610 1396.74847 1381.60115 1364.90898 1347.32875 1329.31161 1309.15863 1289.74065 1271.59428 1257.49803 1242.98154 1228.81511 1215.05980 1202.29824 1190.36869 1179.04037 1168.16512 1158.07779 1148.09469 1138.40203 1129.46282 1121.18305 1113.05469 1105.82116 1097.88540 1077.99833 1044.05918 1011.83340
 142.00000 1585.70040 1590.63821 1599.54199 1612.66229 1624.64785 1616.15417 1598.26454 1592.96396 1590.62714 1583.35424 1572.75737 1562.24942 1554.57969 1548.10850 1544.44626 1538.64022 1534.81332 1531.65625 1528.52925 1523.57856 1518.86398 1513.84594 1507.53120 1499.35645 1490.66512 1481.12426 1469.38639 1458.70906 1447.08229 1434.99472 1424.01207 1412.01029 1397.63867 1382.48275 1365.83250 1348.29929 1330.27013 1310.11277 1290.65901 1272.48760 1258.33920 1243.77799 1229.57421 1215.79577 1203.00758 1191.05916 1179.71185 1168.82044 1158.73092 1148.73389 1139.02377 1130.05138 1121.72990 1113.57340 1106.30738 1098.31129 1078.28854 1044.06678 1011.51442
 143.00000 1585.81591 1590.63226 1599.30767 1611.94260 1624.56045 1616.68995 1598.86702 1593.62409 1590.65517 1583.12395 1572.97401 1562.51328 1554.81168 1548.29166 1544.73611 1538.80901 1534.95926 1531.78959 1528.74854 1523.91629 1519.20647 1514.29784 1508.12445 1500.07197 1491.53900 1482.05760 1470.43404 1459.73672 1448.11527 1436.00462 1424.99601 1412.95246 1398.54397 1383.36695 1366.74684 1349.25835 1331.21640 1311.05436 1291.56400 1273.36647 1259.16498 1244.56131 1230.32228 1216.52396 1203.71176 1191.74775 1180.38401 1169.47871 1159.38965 1149.38039 1139.65358 1130.64550 1122.27681 1114.08660 1106.77949 1098.70980 1078.54255 1044.03028 1011.13791
 144.00000 1585.93645 1590.62699 1599.04788 1611.13514 1624.30084 1617.05041 1599.26395 1594.07671 1590.53493 1582.82139 1573.15896 1562.75024 1555.02734 1548.46394 1545.01673 1538.97809 1535.10862 1531.92836 1528.97714 1524.26885 1519.55688 1514.75351 1508.72301 1500.79851 1492.43088 1483.00964 1471.51091 1460.79960 1449.18573 1437.05152 1426.00739 1413.91465 1399.45720 1384.24769 1367.64649 1350.20069 1332.14580 1311.97951 1292.45237 1274.22791 1259.97282 1245.32919 1231.05701 1217.24201 1204.40828 1192.43175 1181.05395 1170.13686 1160.05073 1150.03094 1140.28825 1131.24219 1122.82124 1114.59221 1107.23607 1099.08089 1078.76216 1043.95199 1010.70623
 145.00000 1586.05507 1590.61821 1598.76369 1610.24787 1623.87795 1617.24467 1599.46872 1594.33552 1590.28038 1582.45452 1573.30893 1562.95529 1555.22215 1548.62142 1545.28301 1539.14423 1535.25874 1532.07066 1529.21194 1524.63294 1519.91142 1515.20763 1509.31944 1501.52718 1493.33009 1483.96907 1472.60457 1461.88529 1450.28140 1438.12398 1427.03598 1414.88746 1400.37001 1385.11806 1368.52533 1351.12064 1333.05335 1312.88413 1293.32084 1275.06898 1260.76033 1246.07944 1231.77621 1217.94764 1205.09468 1193.10843 1181.71864 1170.79162 1160.71065 1150.68199 1140.92426 1131.83820 1123.36044 1115.08809 1107.67582 1099.42500 1078.94994 1043.83507 1010.22263
 146.00000 1586.16371 1590.60098 1598.45630 1609.29023 1623.30330 1617.28462 1599.49876 1594.41851 1589.90893 1582.03305 1573.42056 1563.12315 1555.39124 1548.75984 1545.52933 1539.30385 1535.40665 1532.21435 1529.44939 1525.00484 1520.26582 1515.65428 1509.90534 1502.24790 1494.22447 1484.92301 1473.70072 1462.97940 1451.38795 1439.20859 1428.06983 1415.85992 1401.27277 1385.97023 1369.37666 1352.01200 1333.93377 1313.76402 1294.16614 1275.88682 1261.52528 1246.81007 1232.47786 1218.63866 1205.76855 1193.77499 1182.37492 1171.43955 1161.36564 1151.32969 1141.55772 1132.42997 1123.89150 1115.57210 1108.09759 1099.74311 1079.10932 1043.68355 1009.69137
 147.00000 1586.25313 1590.56961 1598.12711 1608.27331 1622.59115 1617.18522 1599.37593 1594.34827 1589.44179 1581.56862 1573.49043 1563.24829 1555.52943 1548.87461 1545.74961 1539.45303 1535.54912 1532.35709 1529.68549 1525.38028 1520.61531 1516.08687 1510.47135 1502.94930 1495.10021 1485.85684 1474.78306 1464.06539 1452.48886 1440.28981 1429.09515 1416.81939 1402.15450 1386.79540 1370.19310 1352.86806 1334.78138 1314.61476 1294.98498 1276.67870 1262.26567 1247.51930 1233.16014 1219.31302 1206.42753 1194.42865 1183.01957 1172.07700 1162.01168 1151.96987 1142.18441 1133.01364 1124.41134 1116.04204 1108.50042 1100.03674 1079.24464 1043.50249 1009.11780
 148.00000 1586.31281 1590.51761 1597.77767 1607.20989 1621.75873 1616.96469 1599.12683 1594.15240 1588.90424 1581.07489 1573.51511 1563.32489 1555.63117 1548.96080 1545.93723 1539.58747 1535.68259 1532.49632 1529.91576 1525.75451 1520.95458 1516.49812 1511.00706 1503.61868 1495.94181 1486.75415 1475.83318 1465.12443 1453.56526 1441.34984 1430.09617 1417.75142 1403.00274 1387.58376 1370.96662 1353.68160 1335.59015 1315.43184 1295.77413 1277.44202 1262.97975 1248.20561 1233.82143 1219.96886 1207.06941 1195.06662 1183.64926 1172.70018 1162.64446 1152.59805 1142.79975 1133.58506 1124.91672 1116.49572 1108.88356 1100.30810 1079.36128 1043.29799 1008.50846
 149.00000 1586.33092 1590.43757 1597.40973 1606.11462 1620.82646 1616.64476 1598.78324 1593.86391 1588.32593 1580.56776 1573.49110 1563.34690 1555.69057 1549.01315 1546.08505 1539.70251 1535.80316 1532.62924 1530.13525 1526.12221 1521.27776 1516.88001 1511.50096 1504.24189 1496.73195 1487.59658 1476.83041 1466.13527 1454.59576 1442.36847 1431.05503 1418.63967 1403.80352 1388.32439 1371.68845 1354.44481 1336.35368 1316.21056 1296.53040 1278.17433 1263.66605 1248.86778 1234.46040 1220.60450 1207.69206 1195.68613 1184.26060 1173.30514 1163.25943 1153.20944 1143.39879 1134.13975 1125.40426 1116.93098 1109.24654 1100.56008 1079.46571 1043.07735 1007.87117
 150.00000 1586.29419 1590.32121 1597.02522 1605.00411 1619.81820 1616.25100 1598.38247 1593.52164 1587.74125 1580.06548 1573.41495 1563.30801 1555.70139 1549.02603 1546.18538 1539.79309 1535.90663 1532.75284 1530.33846 1526.47751 1521.57843 1517.22377 1511.94041 1504.80327 1497.45138 1488.36376 1477.75168 1467.07407 1455.55634 1443.32290 1431.95162 1419.46576 1404.54118 1389.00523 1372.34911 1355.14930 1337.06519 1316.94612 1297.25067 1278.87342 1264.32346 1249.50491 1235.07604 1221.21853 1208.29356 1196.28451 1184.85015 1173.88778 1163.85180 1153.79892 1143.97624 1134.67294 1125.87042 1117.34566 1109.58916 1100.79637 1079.56562 1042.84911 1007.21515
 151.00000 1586.18784 1590.15922 1596.62633 1603.89708 1618.76147 1615.81302 1597.96778 1593.17066 1587.18964 1579.58886 1573.28321 1563.20166 1555.65704 1548.99343 1546.22994 1539.85375 1535.98845 1532.86386 1530.51938 1526.81392 1521.84953 1517.51984 1512.31154 1505.28559 1498.07883 1489.03315 1478.57139 1467.91424 1456.42011 1444.18762 1432.76346 1420.20913 1405.19834 1389.61300 1372.93832 1355.78610 1337.71749 1317.63357 1297.93194 1279.53731 1264.95124 1250.11652 1235.66768 1221.80981 1208.87218 1196.85912 1185.41446 1174.44386 1164.41650 1154.36107 1144.52640 1135.17956 1126.31152 1117.73769 1109.91155 1101.02151 1079.66999 1042.62320 1006.55113
 152.00000 1585.99549 1589.94131 1596.21546 1602.81447 1617.68772 1615.36477 1597.58882 1592.86277 1586.71593 1579.16141 1573.09244 1563.02106 1555.55055 1548.90899 1546.20989 1539.87864 1536.04371 1532.95881 1530.67139 1527.12431 1522.08337 1517.75780 1512.59921 1505.66991 1498.59087 1489.57995 1479.26127 1468.62628 1457.15722 1444.93419 1433.46555 1420.84694 1405.75576 1390.13313 1373.44498 1356.34558 1338.30300 1318.26787 1298.57132 1280.16429 1265.54907 1250.70255 1236.23507 1222.37751 1209.42641 1197.40748 1185.95005 1174.96903 1164.94824 1154.89014 1145.04323 1135.65420 1126.72377 1118.10505 1110.21423 1101.24096 1079.78921 1042.41100 1005.89145
 153.00000 1585.69909 1589.65603 1595.79525 1601.77960 1616.63256 1614.94488 1597.30206 1592.65691 1586.37073 1578.80955 1572.83933 1562.75918 1555.37461 1548.76596 1546.11576 1539.86145 1536.06715 1533.03394 1530.78730 1527.40092 1522.27159 1517.92638 1512.78694 1505.93552 1498.96180 1489.97695 1479.79021 1469.17763 1457.73461 1445.53110 1434.03020 1421.35391 1406.19223 1390.54968 1373.85714 1356.81748 1338.81373 1318.84388 1299.16608 1280.75298 1266.11714 1251.26343 1236.77839 1222.92121 1209.95506 1197.92722 1186.45348 1175.45884 1165.44150 1155.38007 1145.52027 1136.09115 1127.10325 1118.44585 1110.49811 1101.46122 1079.93518 1042.22549 1005.25019
 154.00000 1585.27878 1589.29084 1595.36862 1600.81829 1615.63607 1614.59692 1597.17122 1592.61969 1586.21078 1578.56277 1572.52059 1562.40880 1555.12152 1548.55722 1545.93746 1539.79544 1536.05313 1533.08527 1530.85930 1527.63529 1522.40516 1518.01339 1512.85686 1506.05986 1499.16356 1490.19442 1480.12412 1469.53246 1458.11588 1445.94359 1434.42692 1421.70218 1406.48450 1390.84529 1374.16197 1357.19084 1339.24125 1319.35633 1299.71368 1281.30236 1266.65615 1251.80013 1237.29833 1223.44088 1210.45722 1198.41617 1186.92134 1175.90873 1165.89050 1155.82446 1145.95071 1136.48439 1127.44595 1118.75830 1110.76458 1101.68984 1080.12141 1042.08132 1004.64329
 155.00000 1584.71284 1588.83193 1594.93878 1599.95905 1614.74304 1614.36972 1597.26779 1592.82585 1586.29938 1578.45387 1572.13309 1561.96247 1554.78323 1548.27522 1545.66424 1539.67343 1535.99562 1533.10854 1530.87894 1527.81821 1522.47431 1518.00569 1512.78964 1506.01841 1499.16555 1490.19998 1480.22576 1469.65153 1458.26107 1446.13345 1434.62219 1421.86118 1406.60709 1391.00111 1374.34568 1357.45402 1339.57673 1319.79993 1300.21180 1281.81181 1267.16739 1252.31420 1237.79615 1223.93693 1210.93235 1198.87235 1187.35029 1176.31410 1166.28925 1156.21664 1146.32734 1136.82760 1127.74777 1119.04078 1111.01553 1101.93559 1080.36319 1041.99496 1004.08867
 156.00000 1583.97755 1588.26423 1594.50922 1599.23318 1614.00326 1614.31772 1597.67148 1593.35879 1586.70675 1578.51909 1571.67383 1561.41257 1554.35131 1547.91205 1545.28470 1539.48776 1535.88822 1533.09926 1530.83706 1527.93976 1522.46852 1517.88915 1512.56440 1505.78462 1498.93455 1489.95843 1480.05460 1469.49198 1458.12648 1446.05883 1434.57939 1421.79746 1406.53226 1390.99670 1374.39354 1357.59463 1339.81089 1320.16928 1300.65836 1282.28116 1267.65280 1252.80786 1238.27371 1224.41034 1211.38032 1199.29405 1187.73708 1176.67027 1166.63156 1156.54959 1146.64252 1137.11411 1128.00453 1119.29186 1111.25341 1102.20847 1080.67761 1041.98480 1003.60639
 157.00000 1583.04713 1587.57133 1594.08375 1598.67496 1613.47185 1614.50129 1598.47078 1594.31113 1587.51048 1578.79840 1571.13998 1560.75128 1553.81695 1547.45936 1544.78674 1539.23030 1535.72410 1533.05266 1530.72384 1527.98922 1522.37648 1517.64862 1512.15867 1505.32974 1498.43457 1489.43166 1479.56662 1469.00712 1457.66447 1445.67408 1434.25854 1421.47456 1406.22982 1390.80993 1374.28979 1357.59955 1339.93401 1320.45896 1301.05156 1282.71075 1268.11503 1253.28403 1238.73354 1224.86260 1211.80146 1199.67981 1188.07858 1176.97254 1166.91103 1156.81600 1146.88827 1137.33697 1128.21198 1119.51030 1111.48127 1102.51988 1081.08378 1042.07132 1003.21876
 158.00000 1581.89360 1586.73539 1593.66654 1598.32178 1613.20951 1614.98709 1599.76339 1595.78521 1588.79594 1579.33564 1570.52891 1559.97064 1553.17099 1546.90841 1544.15756 1538.89241 1535.49605 1532.96371 1530.52870 1527.95504 1522.18608 1517.26786 1511.54830 1504.62282 1497.62672 1488.57850 1478.71415 1468.14629 1456.82324 1444.92948 1433.61617 1420.85280 1405.66703 1390.41699 1374.01763 1357.45485 1339.93590 1320.66351 1301.38994 1283.10145 1268.55750 1253.74642 1239.17889 1225.29585 1212.19658 1200.02852 1188.37183 1177.21621 1167.12106 1157.00824 1147.05618 1137.48890 1128.36584 1119.69512 1111.70284 1102.88265 1081.60291 1042.27713 1002.95050
 159.00000 1580.48667 1585.73710 1593.26211 1598.21437 1613.28292 1615.84841 1601.65685 1597.89370 1590.65676 1580.17881 1569.83823 1559.06251 1552.40388 1546.25003 1543.38364 1538.46498 1535.19641 1532.82712 1530.24033 1527.82485 1521.88436 1516.72954 1510.70739 1503.63052 1496.46904 1487.35453 1477.44570 1466.85462 1455.54665 1443.77109 1432.60515 1419.88918 1404.80848 1389.79220 1373.55917 1357.14581 1339.80593 1320.77745 1301.67238 1283.45474 1268.98444 1254.19955 1239.61381 1225.71291 1212.56705 1200.33941 1188.61404 1177.39657 1167.25488 1157.11839 1147.13743 1137.56234 1128.46180 1119.84563 1111.92255 1103.31119 1082.25846 1042.62722 1002.82886
 160.00000 1578.79367 1584.55556 1592.87534 1598.39690 1613.76497 1617.16557 1604.26907 1600.76020 1593.19522 1581.38025 1569.06580 1558.01864 1551.50569 1545.47461 1542.45070 1537.93835 1534.81711 1532.63733 1529.84662 1527.58539 1521.45750 1516.01515 1509.60825 1502.31705 1494.91642 1485.71196 1475.70576 1465.07282 1453.77396 1442.14052 1431.17447 1418.53717 1403.61594 1388.90799 1372.89535 1356.65688 1339.53298 1320.79531 1301.89814 1283.77275 1269.40100 1254.64886 1240.04322 1226.11733 1212.91485 1200.61214 1188.80264 1177.50895 1167.30553 1157.13824 1147.12281 1137.54939 1128.49553 1119.96142 1112.14562 1103.82154 1083.07628 1043.14899 1002.88382
 161.00000 1576.77937 1583.16829 1592.51153 1598.91721 1614.73515 1619.02630 1607.72889 1604.51981 1596.52284 1582.99689 1568.20982 1556.83068 1550.46613 1544.57215 1541.34371 1537.30236 1534.34962 1532.38848 1529.33463 1527.22247 1520.89073 1515.10500 1508.22125 1500.64406 1492.92039 1483.59950 1473.43463 1462.73698 1451.43964 1439.97469 1429.26908 1416.74655 1402.04825 1387.73479 1372.00596 1355.97163 1339.10548 1320.71163 1302.06694 1284.05831 1269.81328 1255.10079 1240.47294 1226.51347 1213.24263 1200.84680 1188.93530 1177.54875 1167.26592 1157.05929 1147.00273 1137.44187 1128.46272 1120.04245 1112.37811 1104.43156 1084.08472 1043.87249 1003.14821
 162.00000 1445.38766 1448.82604 1452.22339 1454.35944 1462.86114 1468.13046 1463.16274 1447.24819 1444.50406 1437.56578 1429.32827 1418.22011 1413.13633 1407.95437 1403.94868 1401.24554 1400.42460 1398.11299 1395.29074 1393.84714 1388.24022 1385.17001 1381.11237 1377.38401 1371.22146 1364.01203 1356.27902 1348.21283 1339.57153 1330.33353 1321.34497 1310.92413 1297.09833 1284.05429 1270.83034 1257.19450 1243.56896 1228.76811 1213.86700 1200.18855 1189.96705 1178.67122 1166.76793 1155.01533 1143.52240 1132.80318 1122.50070 1112.51048 1103.04906 1093.38634 1084.02835 1074.43188 1064.79057 1055.71216 1047.76834 1039.37429 1021.18533  984.15070  947.26125
 163.00000 1321.36735 1323.64552 1322.32202 1317.32451 1312.89615 1313.85543 1308.13414 1281.56984 1285.19843 1290.45277 1294.04987 1287.45541 1283.49236 1275.80335 1271.01244 1269.01631 1269.25092 1266.33010 1263.35219 1262.35665 1258.02251 1257.81988 1257.42832 1257.38832 1253.06850 1248.37519 1243.52514 1238.72481 1233.00407 1226.07944 1218.39217 1210.85790 1199.14422 1187.92558 1177.46673 1166.13073 1155.75385 1144.59357 1133.39385 1124.05712 1117.66397 1109.58685 1100.04363 1090.26907 1080.40768 1071.44974 1063.04296 1054.87615 1047.04613 1039.20278 1032.04281 1024.16635 1015.90342 1008.29247 1001.22929  992.23464  972.22062  931.35316  889.94353
 164.00000 1236.14769 1237.39441 1233.43172 1224.53579 1213.54217 1211.20484 1204.07048 1173.20201 1178.57595 1189.22141 1198.82475 1195.63609 1193.24624 1185.56420 1181.44562 1180.46136 1181.56226 1178.90152 1176.32977 1175.84772 1172.61027 1173.91615 1175.45893 1177.22638 1174.15950 1171.01433 1167.80809 1164.79917 1160.69773 1155.22577 1148.54879 1142.79559 1132.75302 1123.00488 1114.39342 1104.69956 1096.32915 1087.43366 1078.55720 1071.71975 1067.42209 1061.20903 1053.15086 1044.62224 1035.80156 1027.85360 1020.44398 1013.17679 1006.12862  999.16524  993.06141  985.97672  978.27645  971.22679  964.35394  954.60188  933.05924  889.87448  845.89504
 165.00000 1176.90857 1177.29556 1171.91765 1160.99786 1146.95529 1142.16381 1133.51447 1101.55174 1106.51317 1118.92921 1131.21147 1130.56367 1129.79188 1123.25202 1120.36635 1120.40637 1122.19335 1120.13511 1118.16269 1118.16540 1115.82371 1117.89774 1120.42287 1122.99436 1120.79061 1118.60625 1116.32934 1114.27611 1111.05192 1106.49968 1100.59997 1095.94812 1087.20084 1078.60630 1071.23546 1062.71375 1055.58445 1048.09946 1040.68276 1035.25570 1032.05056 1026.88966 1019.76179 1012.01393 1003.85430  996.46395  989.52786  982.62995  975.87487  969.24338  963.52053  956.67498  949.05297  942.01936  934.92556  924.36482  901.55565  857.08913  811.82086
 166.00000 1135.07029 1134.76990 1128.68265 1116.80208 1101.58788 1095.00879 1084.99320 1053.43070 1057.12591 1069.50432 1082.63714 1083.86460 1084.56115 1079.55313 1078.00444 1078.95439 1081.27286 1079.89559 1078.53812 1078.96170 1077.33065 1079.78170 1082.78088 1085.64561 1084.04733 1082.46915 1080.71669 1079.15708 1076.39724 1072.43618 1067.13269 1063.16662 1055.41035 1047.70587 1041.17440 1033.49114 1027.13340 1020.53033 1014.03389 1009.38346 1006.70475 1002.11740  995.56992  988.30878  980.56721  973.46731  966.70991  959.89056  953.16119  946.55701  940.83488  933.91638  926.10254  918.77735  911.23712  899.88224  876.03497  830.98176  785.24559
 167.00000 1104.89096 1104.05706 1097.65709 1085.40097 1069.96684 1062.11041 1050.96660 1020.39263 1022.62130 1034.15790 1047.19455 1049.79094 1051.73042 1048.26476 1047.94552 1049.65037 1052.37534 1051.63670 1050.83406 1051.60824 1050.53303 1053.16359 1056.37669 1059.29388 1058.13064 1056.94572 1055.49345 1054.18073 1051.66325 1048.09183 1043.24688 1039.71416 1032.71077 1025.68658 1019.72910 1012.64868 1006.77580 1000.72890  994.81672  990.58132  988.12076  983.83085  977.64440  970.68527  963.20695  956.24378  949.50748  942.61892  935.78088  929.04789  923.12891  915.97640  907.83636  900.06527  891.97415  879.87829  855.18968  810.00541  764.30947
 168.00000 1082.52785 1081.28929 1074.79126 1062.46806 1047.25592 1038.50366 1026.47930  997.02825  997.88923 1008.31394 1020.81322 1024.39700 1027.34143 1025.25589 1025.97842 1028.28419 1031.31829 1031.13029 1030.79841 1031.85920 1031.21739 1033.93468 1037.23725 1040.10922 1039.26816 1038.34946 1037.07702 1035.88621 1033.49773 1030.19297 1025.70357 1022.45204 1016.01955 1009.51357 1003.95455  997.31133  991.74921  986.05865  980.52217  976.50100  974.09958  969.95257  963.99057  957.21824  949.90506  942.99343  936.20113  929.17849  922.17502  915.24512  909.04194  901.58665  893.06954  884.79439  876.12441  863.36110  837.99909  792.97261  747.61529
 169.00000 1065.40918 1063.86955 1057.38316 1045.14444 1030.32527 1020.95739 1008.27455  979.87323  979.57877  988.88798 1000.68831 1004.97425 1008.70375 1007.77530 1009.33834 1012.10985 1015.37917 1015.64537 1015.70076 1016.99485 1016.69298 1019.45901 1022.79846 1025.59959 1025.00588 1024.27808 1023.12377 1021.99697 1019.68443 1016.57173 1012.36175 1009.30048 1003.30227  997.19197  991.91523  985.59324  980.23682  974.78062  969.49089  965.57665  963.15971  959.07280  953.25093  946.59417  939.38434  932.47967  925.59998  918.42459  911.24227  904.09757  897.58683  889.81426  880.91841  872.13901  862.90840  849.55963  823.66638  778.97186  734.11332
 170.00000 1051.81376 1050.05403 1043.62994 1031.54092 1017.14935 1007.36881  994.21195  966.70882  965.49252  973.80091  984.88705  989.66338  993.98868  993.99062  996.21008  999.33627 1002.78578 1003.41798 1003.78782 1005.27304 1005.24148 1008.04547 1011.40552 1014.14347 1013.74737 1013.16613 1012.10058 1011.01549 1008.75807 1005.79248 1001.80619  998.88139  993.21629  987.41047  982.33907  976.25739  971.04370  965.74781  960.62543  956.76414  954.30300  950.23483  944.50158  937.91681  930.77171  923.85292  916.87927  909.55654  902.20460  894.85403  888.04739  879.97305  870.72395  861.47292  851.72588  837.87442  811.56951  767.30349  723.01490
 171.00000 1040.58964 1038.67179 1032.32867 1020.40911 1006.41725  996.36940  982.88475  956.11400  954.18952  961.65123  972.07760  977.18801  981.95322  982.68147  985.40182  988.79520  992.38445  993.30873  993.93373  995.57775  995.76551  998.60908 1001.99040 1004.68578 1004.45407 1003.99348 1003.00450 1001.95667  999.74989  996.90446  993.10134  990.28160  984.87547  979.30709  974.39004  968.49233  963.38392  958.20368  953.19998  949.36720  946.85693  942.78946  937.11371  930.57462  923.47031  916.52948  909.46773  902.01428  894.51233  886.97764  879.90406  871.55836  861.99464  852.32116  842.11458  827.83947  801.22288  757.43038  713.72748
 172.00000 1030.96579 1028.93655 1022.67667 1010.92401  997.28053  987.06848  973.36837  947.17862  944.72477  951.49423  961.34216  966.67191  971.75244  973.03500  976.13105  979.72460  983.42418  984.58163  985.41545  987.19404  987.56423  990.45372  993.86379  996.53993  996.45035  996.09532  995.17940  994.17250  992.01938  989.27805  985.62880  982.89599  977.69494  972.31520  967.51865  961.76576  956.74057  951.64923  946.73451  942.92156  940.36840  936.29607  930.65936  924.15032  917.07215  910.10830  902.96971  895.40606  887.77711  880.08473  872.77984  864.19898  854.36392  844.32348  833.71853  819.09249  792.24736  748.94027  705.80590
 173.00000 1022.42615 1020.32028 1014.13833 1002.54039  989.19005  978.88636  965.05508  939.31970  936.47856  942.69305  952.04824  957.51351  962.81196  964.50977  967.88393  971.62736  975.41602  976.76121  977.76864  979.66389  980.18999  983.13273  986.58076  989.25915  989.29661  989.03838  988.19602  987.23664  985.14302  982.49624  978.97972  976.32356  971.28868  966.06230  961.36373  955.72851  950.77365  945.75527  940.91150  937.11758  934.53210  930.45567  924.84724  918.35918  911.29830  904.31384  897.11115  889.45781  881.72457  873.90110  866.40125  857.62185  847.55838  837.20667  826.26358  811.35181  784.34700  741.51664  698.91566
 174.00000 1014.62527 1012.46837 1006.35620  994.89790  981.79034  971.44570  957.54540  932.16381  929.04441  934.81833  943.75993  949.29980  954.74132  956.74512  960.32303  964.17917  968.04164  969.54029  970.69506  972.69383  973.35689  976.35949  979.85411  982.55266  982.70686  982.54027  981.77350  980.86863  978.84077  976.28284  972.88384  970.29858  965.40189  960.30350  955.68790  950.15148  945.25949  940.30466  935.52094  931.74878  929.14231  925.06531  919.47908  913.00689  905.95807  898.95675  891.70220  883.97783  876.16085  868.23073  860.56981  851.62613  841.37410  830.76349  819.53859  804.39844  777.29073  734.91655  692.80543
 175.00000 1007.33187 1005.14265  999.09172  987.75835  974.85129  964.50087  950.57673  925.47170  922.15572  927.58060  936.17680  941.74719  947.27503  949.50077  953.22673  957.16842  961.09373  962.72040  964.00313  966.09579  966.88224  969.95005  973.49841  976.23121  976.49496  976.41693  975.72807  974.88392  972.92744  970.45490  967.16246  964.64491  959.86638  954.87780  950.33508  944.88438  940.05097  935.15415  930.42391  926.67744  924.06041  919.98725  914.41989  907.96085  900.92105  893.90694  886.61137  878.83200  870.94897  862.93356  855.14153  846.06406  835.65896  824.83673  813.38097  798.06213  770.89813  728.95347  687.28639
 176.00000 1000.39110  998.18310  992.18563  980.96427  968.22387  957.89192  943.97639  919.09007  915.63758  920.78466  929.09175  934.66094  940.23258  942.61658  946.44944  950.45699  954.43725  956.17325  957.56972  959.74923  960.64934  963.78633  967.39394  970.17160  970.53980  970.54835  969.93945  969.16107  967.28055  964.89125  961.69740  959.24582  954.57108  949.67932  945.20269  939.82857  935.05128  930.20922  925.52849  921.81169  919.19296  915.12797  909.57780  903.13054  896.09810  889.07498  881.74755  873.92646  865.99213  857.90944  850.01192  840.82694  830.29951  819.30715  807.66547  792.21050  765.02837  723.48419  682.21663
 177.00000  993.69924  991.48221  985.53160  974.41150  961.81159  951.51469  937.63083  912.92064  909.37521  914.29887  922.36202  927.90727  933.49117  935.98584  939.89549  943.95472  947.98424  949.81590  951.31572  953.57687  954.58355  957.79249  961.46335  964.29361  964.76251  964.85628  964.32890  963.62015  961.81907  959.51156  956.41052  954.02389  949.44267  944.63843  940.22324  934.91933  930.19672  925.40749  920.77386  917.09023  914.47697  910.42399  904.89023  898.45417  891.42824  884.39940  877.04759  869.19554  861.22190  853.08676  845.10512  835.83480  825.21110  814.08428  802.29561  786.74060  759.57145  718.39879  677.48951
 178.00000  987.18681  984.96772  979.05860  968.03117  955.55188  945.30131  931.46533  906.90041  903.29328  908.03440  915.88912  921.39428  926.96727  929.53738  933.50198  937.60272  941.67733  943.59468  945.19023  947.52910  948.63715  951.91982  955.65668  958.54496  959.11173  959.28965  958.84487  958.20851  956.48940  954.26263  951.25011  948.92781  944.43271  939.70930  935.35236  930.11415  925.44535  920.70777  916.11976  912.47218  909.87000  905.83220  900.31458  893.88956  886.86974  879.83794  872.46775  864.59327  856.58992  848.41434  840.36608  831.02879  820.33057  809.09949  797.19710  781.57238  754.44151  713.61284  673.02490
 179.00000  980.80721  978.59103  972.71917  961.77767  949.40420  939.20754  925.43071  900.98892  897.34229  901.93131  909.60515  915.05882  920.60401  923.22373  927.22753  931.36246  935.47910  937.47485  939.16048  941.57409  942.77959  946.13699  949.94158  952.89159  953.55399  953.81516  953.45357  952.89149  951.25602  949.10914  946.18195  943.92352  939.50919  934.86179  930.56084  925.38513  920.76955  916.08287  911.53952  907.93021  905.34339  901.32331  895.82180  889.40789  882.39407  875.36154  867.97768  860.08748  852.06199  843.85556  835.75484  826.36558  815.61079  804.30069  792.31267  776.64361  749.57146  709.06153  668.76256
 180.00000  974.52920  972.31942  966.48155  955.62077  943.34222  933.20449  919.49458  895.16019  891.48971  895.94912  903.46323  908.85744  914.36265  917.01316  921.04487  925.20876  929.36512  931.43388  933.20536  935.69135  936.99128  940.42383  944.29715  947.31126  948.06746  948.41102  948.13286  947.64623  946.09543  944.02770  941.18337  938.98841  934.65096  930.07603  925.82944  920.71390  916.15112  911.51481  907.01549  903.44608  900.87781  896.87741  891.39211  884.98947  877.98167  870.95020  863.55634  855.65561  847.61392  839.38421  831.24236  821.81329  811.01658  799.64836  787.59822  771.90584  744.90895  704.69506  664.65721
 181.00000  968.33176  966.13085  960.32448  949.54044  937.34880  927.27329  913.63557  889.39750  885.71414  890.06046  897.43096  902.76023  908.21679  910.88447  914.93601  919.12509  923.31937  925.45715  927.31122  929.86770  931.25964  934.76733  938.70979  941.78944  942.63786  943.06298  942.86819  942.45764  940.99202  939.00274  936.23934  934.10746  929.84398  925.33893  921.14547  916.08839  911.57806  906.99170  902.53592  899.00759  896.46021  892.48096  887.01200  880.62081  873.61916  866.59014  859.18912  851.28187  843.22859  834.98155  826.80756  817.34843  806.52169  795.11248  783.01975  767.32143  740.41305  700.47520  660.67480
 182.00000  962.20078  960.01044  954.23369  943.52335  931.41280  921.40157  907.83954  883.69005  880.00145  884.24682  891.48597  896.74661  902.14840  904.82345  908.88906  913.10057  917.33136  919.53512  921.46921  924.09458  925.57655  929.15907  933.17070  936.31662  937.25587  937.76172  937.64999  937.31575  935.93545  934.02391  931.33990  929.27067  925.07899  920.64183  916.50058  911.50065  907.04242  902.50566  898.09305  894.60658  892.08176  888.12473  882.67225  876.29271  869.29733  862.27187  854.86588  846.95518  838.89386  830.63414  822.43511  812.95371  802.10648  790.67028  778.55106  762.86105  736.05180  696.37259  656.78973
 183.00000  956.12671  953.94812  948.19959  937.56061  925.52689  915.58122  902.09716  878.03085  874.34231  878.49562  885.61276  890.80234  896.14512  898.82055  902.89612  907.12803  911.39416  913.66154  915.67359  918.36648  919.93675  923.59358  927.67409  930.88654  931.91534  932.50108  932.47194  932.21394  930.91881  929.08433  926.47839  924.47138  920.34980  915.97902  911.88920  906.94540  902.53896  898.05145  893.68169  890.23756  887.73647  883.80244  878.36656  871.99884  865.00989  857.98883  850.57956  842.66774  834.60115  826.33234  818.11385  808.61637  797.75631  786.30444  774.17193  758.50190  731.80023  692.36463  652.98273
 184.00000  950.10310  947.93706  942.21568  931.64627  919.68627  909.80687  896.40218  872.41533  868.73052  872.79833  879.80056  884.91759  890.19850  892.86932  896.95192  901.20271  905.50320  907.83230  909.92057  912.67974  914.33683  918.06728  922.21619  925.49507  926.61224  927.27700  927.32986  927.14781  925.93750  924.17937  921.65039  919.70513  915.65231  911.34668  907.30767  902.41918  898.06417  893.62558  889.29836  885.89685  883.42028  879.50979  874.09059  867.73484  860.75248  853.73649  846.32522  838.41409  830.34433  822.06926  813.83566  804.32699  793.46022  782.00181  769.86679  754.22623  727.63882  688.43398  649.23929
 185.00000  944.12554  941.97258  936.27758  925.77632  913.88775  904.07494  890.75043  866.84050  863.16193  867.14911  874.04188  879.08552  884.30270  886.96539  891.05291  895.32141  899.65539  902.04465  904.20764  907.03198  908.77450  912.57781  916.79449  920.13946  921.34385  922.08679  922.22097  922.11442  920.98842  919.30594  916.85293  914.96891  910.98375  906.74228  902.75352  897.91964  893.61571  889.22572  884.94074  881.58195  879.13043  875.24383  869.84138  863.49773  856.52209  849.51170  842.09944  834.19036  826.11908  817.83990  809.59462  800.07863  789.20999  777.75239  765.62360  750.02021  723.55230  684.56729  645.54851
 186.00000  938.19101  936.05149  930.38227  919.94805  908.12918  898.38303  885.13911  861.30434  857.63374  861.54395  868.33150  873.30137  878.45366  881.10576  885.19666  889.48196  893.84865  896.29675  898.53311  901.42158  903.24826  907.12356  911.40729  914.81785  916.10837  916.92863  917.14337  917.11178  916.06948  914.46193  912.08399  910.26071  906.34227  902.16411  898.22509  893.44523  889.19203  884.85030  880.60727  877.29116  874.86501  871.00251  865.61687  859.28542  852.31665  845.31226  837.89980  829.99382  821.92228  813.64069  805.38640  795.86613  784.99949  773.54855  761.43307  745.87305  719.52873  680.75430  641.90215
 187.00000  932.29742  930.17154  924.52765  914.15955  902.40909  892.72950  879.56629  855.80549  852.14404  855.98008  862.66573  867.56178  872.64855  875.28833  879.38152  883.68285  888.08154  890.58731  892.89582  895.84742  897.75705  901.70346  906.05346  909.52898  910.90457  911.80127  912.09580  912.13853  911.17925  909.64592  907.34220  905.57914  901.72659  897.61100  893.72127  888.99487  884.79204  880.49822  876.29686  873.02332  870.62271  866.78444  861.41563  855.09647  848.13470  841.13664  833.72458  825.82252  817.75171  809.46904  801.20783  791.68569  780.82410  769.38451  757.28803  741.77636  715.55878  676.98710  638.29399
 188.00000  926.44328  924.33116  918.71226  908.40952  896.72645  887.11320  874.03061  850.34300  846.69151  850.45554  857.04196  861.86437  866.88537  869.51165  873.60629  877.92303  882.35304  884.91542  887.29495  890.30871  892.30015  896.31673  900.73217  904.27196  905.73157  906.70385  907.07736  907.19373  906.31674  904.85691  902.62662  900.92324  897.13585  893.08216  889.24126  884.56784  880.41500  876.16876  872.00876  868.77762  866.40262  862.58861  857.23665  850.92985  843.97521  836.98374  829.57259  821.67508  813.60578  805.32306  797.05658  787.53448  776.68035  765.25582  753.18293  737.72358  711.63512  673.25960  634.71934
 189.00000  920.62752  918.52923  912.93505  902.69702  891.08051  881.53331  868.53114  844.91618  841.27519  844.96895  851.45832  856.20745  861.16268  863.77464  867.87011  872.20171  876.66240  879.28043  881.72988  884.80489  886.87699  890.96282  895.44284  899.04615  900.58877  901.63576  902.08741  902.27671  901.48124  900.09419  897.93658  896.29232  892.56943  888.57700  884.78453  880.16362  876.06040  871.86138  867.74246  864.55349  862.20409  858.41434  853.07922  846.78485  839.83744  832.85279  825.44295  817.55049  809.48332  801.20138  792.93093  783.41038  772.56562  761.15910  749.11344  733.70959  707.75202  669.56708  631.17466
 190.00000  914.84936  912.76490  907.19522  897.02132  885.47071  875.98923  863.06716  839.52451  835.89440  839.51931  845.91344  850.58977  855.47941  858.07652  862.17234  866.51830  871.00905  873.68181  876.20014  879.33549  881.48717  885.64130  890.18503  893.85109  895.47570  896.59654  897.12549  897.38699  896.67225  895.35726  893.27158  891.68591  888.02686  884.09512  880.35067  875.78182  871.72784  867.57570  863.49756  860.35050  858.02664  854.26111  848.94281  842.66093  835.72087  828.74322  821.33503  813.44801  805.38348  797.10298  788.82961  779.31181  768.47794  757.09177  745.07625  729.73038  703.90497  665.90593  627.65724
 191.00000  909.10820  907.03754  901.49220  891.38190  879.89662  870.48046  857.63815  834.16757  830.54859  834.10586  840.40632  845.01038  849.83477  852.41667  856.51245  860.87234  865.39255  868.11916  870.70536  873.90016  876.13035  880.35182  884.95838  888.68640  890.39200  891.58583  892.19124  892.52418  891.88937  890.64574  888.63126  887.10364  883.50783  879.63622  875.93938  871.42216  867.41705  863.31143  859.27378  856.16836  853.86994  850.12854  844.82706  838.55769  831.62509  824.65461  817.24835  809.36712  801.30563  793.02711  784.75166  775.23757  764.41580  753.05181  741.06874  725.78281  700.09044  662.27332  624.16503
 192.00000  903.40355  901.34666  895.82550  885.77833  874.35786  865.00664  852.24367  828.84502  825.23734  828.72802  834.93619  839.46859  844.22813  846.79462  850.89004  855.26343  859.81252  862.59213  865.24522  868.49860  870.80623  875.09410  879.76262  883.55177  885.33739  886.60336  887.28438  887.68801  887.13232  885.95932  884.01535  882.54522  879.01206  875.20004  871.55042  867.08442  863.12779  859.06835  855.07089  852.00682  849.73371  846.01635  840.73166  834.47486  827.54981  820.58663  813.18256  805.30739  797.24929  788.97320  780.69635  771.18676  760.37805  749.03769  737.08889  721.86442  696.30564  658.66707  620.69647
 193.00000  897.73502  895.69184  890.19473  880.21024  868.85413  859.56742  846.88337  823.55657  819.96030  823.38532  829.50245  833.96382  838.65900  841.20995  845.30475  849.69124  854.26863  857.10043  859.81943  863.13053  865.51456  869.86789  874.59748  878.44697  880.31161  881.64888  882.40467  882.87821  882.40084  881.29776  879.42360  878.01043  874.53935  870.78639  867.18361  862.76841  858.85989  854.84627  850.88871  847.86569  845.61774  841.92431  836.65638  830.41219  823.49479  816.53905  809.13738  801.26850  793.21409  784.94081  776.66313  767.15867  756.36380  745.04822  733.13513  717.97326  692.54838  655.08548  617.25035
 194.00000  892.10228  890.07274  884.59957  874.67732  863.38515  854.16254  841.55695  818.30195  814.71717  818.07739  824.10461  828.49562  833.12696  835.66232  839.75626  844.15547  848.76060  851.64377  854.42774  857.79570  860.25511  864.67297  869.46275  873.37175  875.31446  876.72218  877.55189  878.09461  877.69473  876.66088  874.85584  873.49907  870.08951  866.39510  862.83878  858.47398  854.61319  850.64504  846.72709  843.74481  841.52186  837.85224  832.60105  826.36949  819.45983  812.51165  805.11260  797.25021  789.19976  780.92960  772.65157  763.15278  752.37237  741.08246  729.20619  714.10781  688.81691  651.52723  613.82574
 195.00000  886.50503  884.48906  879.03971  869.17929  857.95066  848.79172  836.26415  813.08091  809.50767  812.80389  818.74226  823.06359  827.63165  830.15141  834.24427  838.65583  843.28815  846.22191  849.06990  852.49390  855.02766  859.50911  864.35821  868.32592  870.34574  871.82308  872.72588  873.33699  873.01381  872.04848  870.31189  869.01098  865.66239  862.02603  858.51578  854.20099  850.38755  846.46453  842.58590  839.64404  837.44593  833.79999  828.56549  822.34660  815.44479  808.50426  801.10802  793.25231  785.20604  776.93930  768.66133  759.16865  748.40321  737.13967  725.30109  710.26684  685.10986  647.99126  610.42192
 196.00000  880.94300  878.94051  873.51489  863.71590  852.55042  843.45473  831.00470  807.89322  804.33155  807.56453  813.41507  817.66740  822.17274  824.67693  828.76853  833.19208  837.85102  840.83460  843.74570  847.22489  849.83200  854.37612  859.28368  863.30928  865.40527  866.95139  867.92645  868.60521  868.35792  867.46041  865.79160  864.54602  861.25785  857.67903  854.21448  849.94930  846.18284  842.30460  838.46500  835.56325  833.38980  829.76742  824.54959  818.34338  811.44950  804.51675  797.12348  789.27463  781.23274  772.96967  764.69213  755.20594  744.45589  733.21928  721.41906  706.44939  681.42613  644.47676  607.03832
 197.00000  875.41592  873.42684  868.02486  858.28690  847.18420  838.15133  825.77838  802.73865  799.18858  802.35904  808.12271  812.30673  816.74996  819.23861  823.32876  827.76395  832.44898  835.48162  838.45489  841.98846  844.66792  849.27380  854.23896  858.32165  860.49286  862.10696  863.15345  863.89910  863.72689  862.89652  861.29482  860.10403  856.87576  853.35398  849.93476  845.71880  841.99896  838.16515  834.36428  831.50233  829.35337  825.75441  820.55321  814.35972  807.47386  800.54897  793.15885  785.31700  777.27971  769.02054  760.74374  751.26437  740.53007  729.32082  717.55946  702.65467  677.76483  640.98306  603.67449
 198.00000  869.92357  867.94781  862.56938  852.89205  841.85178  832.88130  820.58496  797.61698  794.07851  797.18718  802.86490  806.98132  811.36301  813.83620  817.92473  822.37120  827.08179  830.16272  833.19728  836.78441  839.53524  844.20196  849.22386  853.36285  855.60836  857.28961  858.40671  859.21851  859.12058  858.35666  856.82142  855.68489  852.51598  849.05077  845.67650  841.50937  837.83577  834.04606  830.28364  827.46117  825.33652  821.76084  816.57623  810.39549  803.51774  796.60081  789.21400  781.37930  773.34678  765.09173  756.81596  747.34372  736.62544  725.44389  713.72178  698.88207  674.12525  637.50964  600.33005
 199.00000  864.46571  862.50318  857.14821  847.53113  836.55293  827.64442  815.42423  792.52800  789.00114  792.04869  797.64139  801.69089  806.01165  808.46944  812.55618  817.01361  821.74922  824.87770  827.97264  831.61253  834.43375  839.16042  844.23823  848.43272  850.75159  852.49919  853.68609  854.56329  854.53886  853.84071  852.37127  851.28847  848.17840  844.76926  841.43959  837.32091  833.69319  829.94722  826.22297  823.43967  821.33915  817.78661  812.61856  806.45058  799.58103  792.67216  785.28882  777.46140  769.43383  761.18310  752.90862  743.44377  732.74179  721.58820  709.90560  695.13106  670.50682  634.05607  597.00471
 200.00000  859.04211  857.09273  851.76113  842.20393  831.28744  822.44048  810.29596  787.47150  783.95625  786.94335  792.45192  796.43519  800.69562  803.13808  807.22288  811.69092  816.45104  819.62633  822.78077  826.47263  829.36327  834.14899  839.28186  843.53107  845.92240  847.73555  848.99143  849.93331  849.98159  849.34853  847.94425  846.91465  843.86290  840.50935  837.22392  833.15330  829.57109  825.86853  822.18217  819.43772  817.36115  813.83163  808.68009  802.52490  795.66362  788.76290  781.38318  773.56319  765.54073  757.29451  749.02158  739.56435  728.87888  717.75346  706.11059  691.40123  666.90906  630.62199  593.69822
 201.00000  853.65255  851.71623  846.40792  836.91022  826.05510  817.26926  805.19995  782.44726  778.94363  781.87094  787.29625  791.21398  795.41467  797.84190  801.92459  806.40292  811.18702  814.40840  817.62146  821.36449  824.32360  829.16749  834.35460  838.65775  841.12063  842.99853  844.32260  845.32841  845.44862  844.87999  843.54023  842.56332  839.56936  836.27093  833.02937  829.00644  825.46938  821.80990  818.16114  815.45523  813.40243  809.89578  804.76072  798.61834  791.76543  784.87294  777.49699  769.68454  761.66737  753.42585  745.15470  735.70531  725.03655  713.93946  702.33644  687.69222  663.33158  627.20713  590.41037
 202.00000  848.29681  846.37347  841.08837  831.64979  820.85569  812.13056  800.13600  777.45507  773.96306  776.83124  782.17415  786.02702  790.16857  792.58065  796.66109  801.14937  805.95695  809.22368  812.49451  816.28793  819.31456  824.21575  829.45627  833.81258  836.34611  838.28799  839.67945  840.74847  840.93984  840.43497  839.15908  838.23434  835.29768  832.05389  828.85583  824.88022  821.38795  817.77121  814.15977  811.49210  809.46288  805.97897  800.86036  794.73081  787.88634  781.00217  773.63014  765.82537  757.81364  749.57698  741.30784  731.86651  721.21463  710.14600  698.58292  684.00374  659.77405  623.81121  587.14096
 203.00000  842.97468  841.06423  835.80225  826.42243  815.68902  807.02418  795.10390  772.49474  769.01434  771.82404  777.08540  780.87408  784.95708  787.35409  791.43213  795.93004  800.76059  804.07198  807.39970  811.24274  814.33595  819.29358  824.58669  828.99541  831.59870  833.60377  835.06184  836.19335  836.45510  836.01333  834.80070  833.92761  831.04773  827.85812  824.70321  820.77454  817.32671  813.75237  810.17798  807.54823  805.54242  802.08111  796.97890  790.86221  784.02626  777.15051  769.78254  761.98556  753.97942  745.74781  737.48089  728.04781  717.41297  706.37290  694.84980  680.33554  656.23620  620.43404  583.88984
 204.00000  837.68594  835.78830  830.54935  821.22793  810.55486  801.94990  790.10345  767.56606  764.09726  766.84911  772.02976  775.75493  779.77997  782.16201  786.23750  790.74473  795.59775  798.95307  802.33684  806.22874  809.38760  814.40080  819.74571  824.20607  826.87824  828.94572  830.46962  831.66291  831.99428  831.61496  830.46495  829.64301  826.81940  823.68350  820.57140  816.68930  813.28555  809.75329  806.21566  803.62353  801.64096  798.20210  793.11626  787.01244  780.18510  773.31784  765.95407  758.16501  750.16461  741.93822  733.67372  724.24908  713.63144  702.62000  691.13689  676.68738  652.71778  617.07543  580.65685
 205.00000  832.43038  830.54547  825.32948  816.06607  805.45302  796.90754  785.13445  762.66883  759.21163  761.90626  767.00703  770.66935  774.63701  777.00417  781.07696  785.59319  790.46819  793.86675  797.30573  801.24573  804.46932  809.53724  814.93314  819.44440  822.18458  824.31370  825.90265  827.15701  827.55726  827.23974  826.15172  825.38042  822.61259  819.52993  816.46029  812.62440  809.26437  805.77386  802.27273  799.71791  797.75839  794.34186  789.27234  783.18142  776.36276  769.50407  762.14465  754.36362  746.36911  738.14810  729.88624  720.47022  709.86991  698.88715  687.44403  673.05909  649.21859  613.73521  577.44187
 206.00000  827.20781  825.33553  820.14241  810.93667  800.38330  791.89687  780.19670  757.80284  754.35723  756.99527  762.01698  765.61712  769.52797  771.88034  775.95030  780.47522  785.37170  788.81282  792.30617  796.29351  799.58093  804.70273  810.14883  814.71024  817.51756  819.70757  821.36080  822.67553  823.14389  822.88753  821.86089  821.13974  818.42718  815.39732  812.36978  808.57972  805.26307  801.81398  798.34907  795.83127  793.89462  790.50029  785.44706  779.36904  772.55915  765.70912  758.35418  750.58130  742.59283  734.37735  726.11832  716.71110  706.12825  695.17423  683.77106  669.45048  645.73844  610.41323  574.24477
 207.00000  822.01799  820.15827  814.98794  805.83951  795.34548  786.91771  775.29000  752.96790  749.53388  752.11594  757.05940  760.59801  764.45263  766.79030  770.85728  775.39059  780.30807  783.79106  787.33796  791.37191  794.72223  799.89709  805.39261  810.00343  812.87703  815.12718  816.84393  818.21833  818.75407  818.55822  817.59235  816.92084  814.26307  811.28554  808.29976  804.55518  801.28156  797.87357  794.44461  791.96352  790.04957  786.67730  781.64031  775.57523  768.77417  761.93289  754.58257  746.81795  738.83565  730.62587  722.36987  712.97162  702.40634  691.48110  680.11783  665.86139  642.27716  607.10936  571.06543
 208.00000  816.86074  815.01348  809.86587  800.77438  790.33938  781.96986  770.41416  748.16381  744.74136  747.26805  752.13407  755.61180  759.41076  761.73383  765.79770  770.33909  775.27709  778.80126  782.40090  786.48072  789.89307  795.12015  800.66431  805.32381  808.26284  810.57238  812.35189  813.78527  814.38765  814.25168  813.34598  812.72362  810.12015  807.19449  804.25013  800.55067  797.31973  793.95252  790.55924  788.11457  786.22315  782.87279  777.85202  771.79988  765.00774  758.17528  750.82971  743.07346  735.09749  726.89356  718.64077  709.25167  698.70409  687.80764  676.48422  662.29169  638.83462  603.82346  567.90373
 209.00000  811.73585  809.90098  804.77599  795.74110  785.36478  777.05312  765.56899  743.39036  739.97949  742.45142  747.24079  750.65828  754.40215  756.71070  760.77132  765.32049  770.27855  773.84324  777.49480  781.61977  785.09325  790.37174  795.96377  800.67123  803.67485  806.04303  807.88456  809.37624  810.04453  809.96781  809.12167  808.54797  805.99831  803.12408  800.22079  796.56609  793.37749  790.05074  786.69288  784.28432  782.41525  779.08669  774.08209  768.04291  761.25976  754.43620  747.09552  739.34776  731.37824  723.18033  714.93094  705.55113  695.02136  684.15373  672.87009  658.74123  635.41065  600.55543  564.75957
 210.00000  806.64311  804.82054  799.71810  790.73945  780.42150  772.16730  760.75429  738.64738  735.24807  737.66583  742.37935  745.73724  749.42658  751.72070  755.77794  760.33459  765.31224  768.91678  772.61947  776.78886  780.32259  785.65168  791.29083  796.04553  799.11290  801.53899  803.44180  804.99109  805.72456  805.70647  804.91929  804.39377  801.89744  799.07419  796.21164  792.60135  789.45474  786.16814  782.84542  780.47269  778.62580  775.31890  770.33042  764.30424  757.53015  750.71556  743.37990  735.64073  727.67781  719.48606  711.24026  701.86991  691.35806  680.51927  669.27532  655.20989  632.00515  597.30513  561.63285
 211.00000  801.58232  799.77197  794.69200  785.76924  775.50933  767.31219  755.96987  733.93465  730.54690  732.91109  737.54953  740.84846  744.48382  746.76360  750.81733  755.38117  760.37794  764.02168  767.77470  771.98780  775.58092  780.95982  786.64532  791.44655  794.57684  797.06012  799.02347  800.62970  801.42763  801.46755  800.73874  800.26091  797.81743  795.04473  792.22257  788.65633  785.55139  782.30462  779.01678  776.67959  774.85471  771.56933  766.59695  760.58376  753.81881  747.01327  739.68276  731.95229  723.99611  715.81066  707.56864  698.20790  687.71408  676.90413  665.69980  651.69755  628.61798  594.07247  558.52345
 212.00000  796.55328  794.75507  789.69749  780.83027  770.62808  762.48761  751.21554  729.25199  725.87579  728.18700  732.75114  735.99173  739.57366  741.83919  745.88928  750.46003  755.47546  759.15774  762.96032  767.21642  770.86807  776.29597  782.02708  786.87414  790.06653  792.60628  794.62944  796.29195  797.15362  797.25094  796.57991  796.14929  793.75818  791.03558  788.25349  784.73096  781.66734  778.46008  775.20687  772.90492  771.10187  767.83789  762.88156  756.88139  750.12565  743.32924  736.00401  728.28235  720.33304  712.15405  703.91597  694.56501  684.08932  673.30822  662.14342  648.20409  625.24902  590.85734  555.43128
 213.00000  791.55579  789.76964  784.73436  775.92234  765.77755  757.69337  746.49111  724.59921  721.23455  723.49336  727.98396  731.16684  734.69589  736.94726  740.99357  745.57094  750.60459  754.32477  758.17612  762.47453  766.18385  771.65997  777.43596  782.32815  785.58182  788.17732  790.25957  791.97769  792.90240  793.05651  792.44267  792.05879  789.71959  787.04665  784.30429  780.82512  777.80250  774.63444  771.41558  769.14859  767.36722  764.12450  759.18419  753.19704  746.45059  739.66338  732.34356  724.63081  716.68849  708.51611  700.28216  690.94112  680.48367  669.73142  658.60606  644.72939  621.89817  587.65963  552.35624
 214.00000  786.58966  784.81549  779.80243  771.04526  760.95755  752.92927  741.79639  719.97612  716.62298  718.82997  723.24781  726.37358  729.85028  732.08758  736.13000  740.71370  745.76512  749.52257  753.42192  757.76195  761.52810  767.05166  772.87179  777.80842  781.12257  783.77311  785.91373  787.68681  788.67385  788.88414  788.32692  787.98931  785.70154  783.07784  780.37489  776.93872  773.95676  770.82759  767.64284  765.41052  763.65065  760.42906  755.50473  749.53063  742.79353  736.01560  728.70131  720.99757  713.06239  704.89676  696.66711  687.33615  676.89702  666.17363  655.08762  641.27335  618.56532  584.47925  549.29823
 215.00000  781.65469  779.89241  774.90150  766.19884  756.16790  748.19513  737.13120  715.38252  712.04090  714.19664  718.54246  721.61174  725.03664  727.25995  731.29835  735.88811  740.95686  744.75094  748.69754  753.07850  756.90064  762.47087  768.33441  773.31481  776.68864  779.39352  781.59179  783.41917  784.46786  784.73373  784.23255  783.94073  781.70394  779.12904  776.46516  773.07167  770.13003  767.03946  763.88856  761.69062  759.95208  756.75150  751.84311  745.88206  739.15439  732.38581  725.07718  717.38255  709.45464  701.29590  693.07073  683.74998  673.32929  662.63475  651.58799  637.83586  615.25036  581.31609  546.25716
