Temperature as a function of time and angular position 

Angular position
   theta1_[deg]   ..........   theta59_[deg]
              0.00000    2.30770    4.61537    6.92308    9.23076   11.53846   13.84615   16.15385   18.46154   20.76922   23.07693   25.38459   27.69235   29.99999   32.30761   34.61535   36.92316   39.23071   41.53852   43.84614   46.15391   48.46158   50.76920   53.07696   55.38465   57.69245   59.99996   62.30765   64.61545   66.92302   69.23081   71.53845   73.84626   76.15380   78.46165   80.76921   83.07696   85.38453   87.69242   90.00000   91.80880   93.61377   95.41182   97.19925   98.97270  100.72877  102.46490  104.17809  105.86579  107.52549  109.15559  110.75410  112.31952  113.85041  115.34617  116.80583  118.22886  119.61477  120.96376

Time and temperatures for the above positions
  time_[s]   T(theta1)_[K]      ..........  T(theta59)_[K]
   0.00000  310.05000  310.05000  310.05000  310.05000  310.05000  310.05000  310.05000  310.05000  310.05000  310.05000  310.05000  310.05000  310.05000  310.05000  310.05000  310.05000  310.05000  310.05000  310.05000  310.05000  310.05000  310.05000  310.05000  310.05000  310.05000  310.05000  310.05000  310.05000  310.05000  310.05000  310.05000  310.05000  310.05000  310.05000  310.05000  310.05000  310.05000  310.05000  310.05000  310.05000  310.05000  310.05000  310.05000  310.05000  310.05000  310.05000  310.05000  310.05000  310.05000  310.05000  310.05000  310.05000  310.05000  310.05000  310.05000  310.05000  310.05000  310.05000  310.05000
   0.10000  877.35334  868.94325  855.86140  826.84594  784.82611  774.22453  790.66193  806.62429  814.04818  816.53448  814.51042  810.29516  805.82875  799.56363  792.61881  787.15658  780.52293  773.01005  765.87836  759.71190  752.90287  745.08127  739.29768  732.15411  724.48857  718.53468  712.16297  706.18679  700.15535  694.24126  687.78435  681.21958  673.86396  666.30653  658.92452  651.45765  646.21369  641.56403  636.32132  629.80928  624.61278  619.39129  614.57913  610.12815  606.20338  602.67611  599.39763  596.60477  594.40870  592.22647  589.77911  586.27829  580.35469  574.33281  571.79197  569.79940  566.84992  560.73542  548.99091
   0.20000 1085.26102 1074.25318 1056.62656 1017.67851  959.45514  943.01424  968.04129  990.61392 1000.72746 1003.85242 1001.01956  995.22326  988.93185  980.62527  971.34725  963.66262  954.50997  944.12692  934.47765  925.89365  916.26716  905.32324  897.02007  887.04467  876.34245  867.67774  858.44303  849.59834  840.50255  831.51151  821.85411  812.11535  801.43387  790.20584  778.93947  767.37735  758.41782  750.25842  741.54513  731.47663  723.46423  715.55106  708.05375  701.02935  694.71566  688.97845  683.69308  679.02768  675.17879  671.43430  667.46456  662.53177  655.22550  648.54747  646.46689  644.51825  640.65541  632.25500  615.62562
   0.30000 1236.92058 1224.15630 1203.34574 1157.26554 1087.30474 1066.69883 1098.13482 1125.67345 1137.87992 1141.59199 1138.28071 1131.43511 1123.91155 1114.20983 1103.31775 1094.09712 1083.18544 1070.77947 1059.36413 1049.08434 1037.46165 1024.29104 1014.20461 1002.21006  989.33226  978.73043  967.44144  956.53446  945.22640  934.00970  922.03036  909.98544  896.88025  882.96634  868.84966  854.27469  842.58253  831.84084  820.57078  807.87717  797.79269  787.89780  778.42074  769.49788  761.42203  754.05507  747.29080  741.24576  736.18117  731.28761  726.19725  720.21059  711.88621  704.73865  703.03331  701.14423  696.61469  686.50538  666.19281
   0.40000 1358.50725 1344.44520 1321.18685 1269.47938 1190.17468 1166.30556 1202.99466 1234.63052 1248.62049 1252.90123 1249.29677 1241.69437 1233.26361 1222.52004 1210.40579 1200.02343 1187.76595 1173.79646 1161.02331 1149.43995 1136.26589 1121.35264 1109.88212 1096.30784 1081.71927 1069.59849 1056.69164 1044.15716 1031.09559 1018.11120 1004.28199  990.39695  975.35184  959.27912  942.86481  925.85472  911.95475  899.12589  885.78658  870.96423  859.20485  847.70727  836.62678  826.16544  816.66175  807.97461  800.01331  792.85184  786.80523  780.98353  774.98729  768.14889  759.00125  751.48562  750.11454  748.29678  743.23319  731.72030  708.35636
   0.50000 1460.38672 1445.32964 1420.10811 1363.76159 1276.68315 1250.14380 1291.33155 1326.49851 1342.07231 1346.91269 1343.13941 1334.97484 1325.85276 1314.30181 1301.22510 1289.92921 1276.59957 1261.37036 1247.50975 1234.88264 1220.45133 1204.11509 1191.52468 1176.66109 1160.66860 1147.30523 1133.06868 1119.19370 1104.68111 1090.23090 1074.86273 1059.44443 1042.77766 1024.89238 1006.54315  987.47679  971.71322  957.12193  942.03299  925.40706  912.23340  899.38179  886.94463  875.18081  864.46854  854.66428  845.69093  837.58582  830.71076  824.10612  817.34509  809.78780  799.94495  792.12885  791.06757  789.33073  783.82071  771.10328  745.09752
   0.60000 1547.99108 1532.15783 1505.32389 1445.05406 1351.33932 1322.55937 1367.69950 1405.98782 1423.00130 1428.39537 1424.54408 1415.95909 1406.30297 1394.11543 1380.26541 1368.23686 1354.03444 1337.76673 1323.01570 1309.53433 1294.06011 1276.53371 1263.01613 1247.07487 1229.90205 1215.49759 1200.14137 1185.13507 1169.39182 1153.69566 1137.01488 1120.28668 1102.22982 1082.78367 1062.76304 1041.91545 1024.53827 1008.42039  991.81389  973.62038  959.22179  945.19685  931.58227  918.68740  906.92582  896.15202  886.30113  877.37803  869.78630  862.50444  855.08134  846.90192  836.45711  828.39033  827.62258  825.97480  820.08247  806.30446  777.95166
   0.70000 1624.61620 1608.17355 1579.99564 1516.35192 1416.87506 1386.18428 1434.85557 1475.94916 1494.29074 1500.23339 1496.37354 1487.47696 1477.40765 1464.71489 1450.23714 1437.61526 1422.69367 1405.55801 1390.06857 1375.87917 1359.52747 1340.99061 1326.69475 1309.83937 1291.65893 1276.36917 1260.05565 1244.07975 1227.27616 1210.50403 1192.68562 1174.82021 1155.55222 1134.73963 1113.25108 1090.83459 1072.03683 1054.57449 1036.62962 1017.05068 1001.57349  986.51486  971.86134  957.96789  945.28010  933.65083  923.02644  913.38256  905.16073  897.28352  889.27791  880.55129  869.57678  861.29829  860.81243  859.26081  853.03608  838.30840  807.83472
   0.80000 1692.45413 1675.53354 1646.22467 1579.64533 1475.10500 1442.76620 1494.62990 1538.27423 1557.85330 1564.33934 1560.52564 1551.40382 1541.01742 1527.92408 1512.93477 1499.83077 1484.31279 1466.44563 1450.33943 1435.55913 1418.46253 1399.05934 1384.10466 1366.46640 1347.41705 1331.36713 1314.22679 1297.41130 1279.68435 1261.97295 1243.15763 1224.29393 1203.95879 1181.93616 1159.14336 1135.32870 1115.26563 1096.60537 1077.46629 1056.64845 1040.21048 1024.23058 1008.64963  993.86424  980.34940  967.95658  956.64253  946.35627  937.57416  929.16770  920.64379  911.43049  899.98462  891.52614  891.31348  889.86429  883.34760  867.75943  835.34597
   0.90000 1753.05799 1735.76546 1705.49898 1636.34314 1527.31338 1493.54169 1548.31698 1594.30067 1615.04105 1622.06486 1618.34116 1609.06420 1598.43895 1585.03042 1569.62453 1556.12942 1540.11573 1521.62911 1505.00607 1489.73110 1471.99872 1451.84791 1436.33280 1418.01990 1398.21607 1381.50929 1363.64989 1346.10225 1327.56514 1309.02752 1289.33172 1269.58469 1248.30158 1225.19837 1201.23681 1176.16535 1154.96556 1135.22875 1115.01490 1093.07955 1075.77845 1058.97052 1042.55458 1026.96572 1012.70606  999.62596  987.69186  976.82831  967.54396  958.66319  949.67435  940.02471  928.15599  919.54410  919.59790  918.25672  911.48185  895.10709  860.90349
   1.00000 1807.58019 1790.00261 1758.92219 1687.49007 1574.45229 1539.42722 1596.87604 1645.01942 1666.85538 1674.41074 1670.81262 1661.43830 1650.63896 1636.98612 1621.24276 1607.43236 1591.00701 1571.99468 1554.93841 1539.24936 1520.97273 1500.17403 1484.18114 1465.28460 1444.82262 1427.54595 1409.05830 1390.86908 1371.61735 1352.34895 1331.87101 1311.33778 1289.20745 1265.13315 1240.11745 1213.90880 1191.68111 1170.97052 1149.78301 1126.83296 1108.75146 1091.19450 1074.02195 1057.70458 1042.76987 1029.06718 1016.57211 1005.18653  995.44924  986.14082  976.73243  966.68922  954.43893  945.69635  946.01122  944.78309  937.77885  920.68018  884.81297
   1.10000 1856.90648 1839.11589 1807.34226 1733.88863 1617.25295 1581.12655 1641.04347 1691.19107 1714.06476 1722.14481 1718.70135 1709.27784 1698.35868 1684.52113 1668.50701 1654.44532 1637.67950 1618.22106 1600.80249 1584.76778 1566.02483 1544.66328 1528.26302 1508.86053 1487.82272 1470.05051 1451.01233 1432.25909 1412.37462 1392.45728 1371.28160 1350.04559 1327.15460 1302.20333 1276.23207 1248.98913 1225.82722 1204.23129 1182.15722 1158.28099 1139.49040 1121.25250 1103.39089 1086.40968 1070.86006 1056.59061 1043.58555 1031.72565 1021.57801 1011.88229 1002.09357  991.69380  979.09763  970.24413  970.81563  969.70510  962.49651  944.72804  907.30620
   1.20000 1901.73666 1883.79329 1851.42896 1776.17266 1656.29282 1619.19535 1681.40067 1733.41604 1757.27567 1765.87299 1762.60798 1753.17580 1742.18265 1728.21097 1711.98296 1697.72457 1680.67917 1660.84292 1643.12291 1626.80129 1607.65908 1585.80806 1569.06111 1549.21975 1527.67732 1509.47388 1489.95244 1470.70241 1450.25624 1429.76105 1407.96097 1386.09472 1362.51839 1336.77212 1309.93120 1281.74371 1257.72926 1235.32516 1212.44052 1187.71540 1168.27797 1149.41861 1130.92695 1113.33841 1097.22650 1082.43911 1068.96867 1056.67621 1046.15550 1036.10781 1025.97312 1015.24924 1002.33849  993.39145  994.21589  993.22710  985.83616  967.44527  928.56404
   1.30000 1942.63603 1924.59054 1891.72329 1814.85408 1692.03823 1654.08233 1718.41704 1772.17901 1796.97768 1806.08428 1803.01723 1793.61060 1782.58247 1768.51991 1752.12683 1737.71864 1720.44618 1700.29125 1682.32245 1665.76477 1646.28158 1624.00494 1606.96407 1586.74232 1564.75744 1546.17889 1526.23303 1506.54504 1485.59943 1464.58871 1442.22863 1419.79584 1395.60041 1369.13128 1341.49636 1312.44339 1287.64839 1264.50418 1240.87600 1215.37022 1195.34090 1175.91258 1156.84302 1138.69708 1122.06935 1106.80718 1092.91082 1080.22275 1069.36199 1058.99364 1048.54342 1037.52415 1024.32657 1015.30147 1016.37568 1015.51241 1007.95866  988.98735  948.73096
   1.40000 1980.06960 1961.96479 1928.67026 1850.35394 1724.87274 1686.15654 1752.47864 1807.87860 1833.57337 1843.18081 1840.32764 1830.97558 1819.94580 1805.82949 1789.31353 1774.79608 1757.34217 1736.92009 1718.74835 1701.99892 1682.22572 1659.57949 1642.29091 1621.74011 1599.36745 1580.46319 1560.14474 1540.07068 1518.68062 1497.20947 1474.34636 1451.40348 1426.64766 1399.51971 1371.15800 1341.30985 1315.79835 1291.97455 1267.66250 1241.43680 1220.86451 1200.91403 1181.31303 1162.65421 1145.55212 1129.85368 1115.56661 1102.51592 1091.34460 1080.68354 1069.94501 1058.65606 1045.19648 1036.10718 1037.42842 1036.69411 1028.99510 1009.48091  967.92463
   1.50000 2014.42570 1996.29781 1962.64150 1883.02394 1755.11671 1715.72621 1783.90790 1840.84772 1867.39895 1877.49835 1874.87197 1865.59916 1854.59630 1840.45828 1823.85605 1809.26452 1791.66895 1771.02489 1752.69034 1735.78798 1715.76961 1692.80324 1675.30764 1654.47315 1631.76113 1612.57485 1591.92977 1571.51569 1549.73007 1527.84754 1504.53219 1481.12955 1455.86576 1428.13623 1399.10789 1368.52752 1342.35687 1317.90775 1292.96533 1266.07421 1245.00285 1224.57219 1204.48146 1185.34975 1167.81056 1151.71048 1137.06437 1123.68073 1112.22537 1101.29677 1090.29443 1078.75898 1065.05976 1055.91879 1057.48462 1056.88244 1049.05402 1029.03082  986.24245
   1.60000 2046.03277 2027.91252 1993.95142 1913.16157 1783.04117 1743.05213 1812.97763 1871.36803 1898.73890 1909.32103 1906.93182 1897.75923 1886.80781 1872.67577 1856.01914 1841.38420 1823.68183 1802.85554 1784.39346 1767.37231 1747.14843 1723.90574 1706.23912 1685.16121 1662.15292 1642.72350 1621.79275 1601.07975 1578.94227 1556.69226 1532.97016 1509.15290 1483.42824 1455.14862 1425.50779 1394.25195 1367.47386 1342.44832 1316.92381 1289.41648 1267.88568 1247.01276 1226.47002 1206.90156 1188.95896 1172.48855 1157.51204 1143.82232 1132.10696 1120.93363 1109.68970 1097.92873 1084.01018 1074.82891 1076.63715 1076.17000 1068.22658 1047.72513 1003.76619
   1.70000 2075.17161 2057.08505 2022.86888 1941.02129 1808.87794 1768.35737 1839.92121 1899.68053 1927.83662 1938.89196 1936.74811 1927.69354 1916.81464 1902.71259 1886.02935 1871.37777 1853.59921 1832.62581 1814.06731 1796.95753 1776.56330 1753.08334 1735.27768 1713.99224 1690.72616 1671.08834 1649.90859 1628.93350 1606.48341 1583.90539 1559.81753 1535.62634 1509.48329 1480.70013 1450.49581 1418.61591 1391.27724 1365.71964 1339.65683 1311.57796 1289.62368 1268.34292 1247.38242 1227.41008 1209.09471 1192.28244 1177.00162 1163.03026 1151.07677 1139.67949 1128.21420 1116.24687 1102.12750 1092.91630 1094.96498 1094.63551 1086.59027 1065.63866 1020.56532
   1.80000 2102.08453 2084.05372 2049.62596 1966.82279 1832.82722 1791.83460 1864.94022 1925.99340 1954.90236 1966.42116 1964.52900 1955.60755 1944.81925 1930.76798 1914.08246 1899.43764 1881.60986 1860.52044 1841.89303 1824.72130 1804.18802 1780.50565 1762.58944 1741.12858 1717.63924 1697.82414 1676.42834 1655.22430 1632.49700 1609.62658 1585.21001 1560.68172 1534.15879 1504.91434 1474.19110 1441.73391 1413.87731 1387.82805 1361.26684 1332.65719 1310.31222 1288.65503 1267.30802 1246.96181 1228.30164 1211.17355 1195.61224 1181.38161 1169.21000 1157.60777 1145.93966 1133.78351 1119.48030 1110.24868 1112.53597 1112.34663 1104.21165 1082.83569 1036.69952
   1.90000 2126.98232 2109.02590 2074.42465 1990.75730 1855.06328 1813.65157 1888.21023 1950.48794 1980.11930 1992.09162 1990.45588 1981.68028 1970.99810 1957.01562 1940.34908 1925.73150 1907.87828 1886.70044 1868.02850 1850.81846 1830.17406 1806.32053 1788.31920 1766.71170 1743.03017 1723.06577 1701.48360 1680.08052 1657.10802 1633.97748 1609.26582 1584.43385 1557.56609 1527.89886 1496.69735 1463.70564 1435.37009 1408.86609 1381.84301 1352.73988 1330.03422 1308.02937 1286.32451 1265.63193 1246.65264 1229.23261 1213.41268 1198.94330 1186.57195 1174.78224 1162.92835 1150.59951 1136.12806 1126.88477 1129.40897 1129.36200 1121.14845 1099.37193 1052.22050
   2.00000 2150.04964 2132.18330 2097.44199 2012.99247 1875.73895 1833.95543 1909.88523 1973.32325 2003.64818 2016.06394 2014.68795 2006.06889 1995.50609 1981.60799 1964.97903 1950.40664 1932.54896 1911.30725 1892.61238 1875.38502 1854.65447 1830.65782 1812.59413 1790.86587 1767.02015 1746.93167 1725.18995 1703.61490 1680.42624 1657.06489 1632.08871 1606.98355 1579.80291 1549.74812 1518.10558 1484.61853 1455.83978 1428.91493 1401.46350 1371.90119 1348.86242 1326.53633 1304.49997 1283.48634 1264.21155 1246.52157 1230.46317 1215.77395 1203.21980 1191.25871 1179.23476 1166.74811 1152.12286 1142.87596 1145.63547 1145.73292 1137.45112 1115.29608 1067.17346
   3.00000 2308.46433 2291.93426 2256.93787 2167.75293 2020.27932 1976.51704 2062.73410 2135.04692 2170.99440 2187.28498 2188.48971 2181.72025 2172.74416 2160.18213 2144.54940 2131.02731 2113.85383 2092.85378 2074.69613 2058.04222 2037.36611 2012.98800 1995.13761 1973.17400 1948.75258 1928.37974 1906.07158 1883.82147 1859.60419 1835.08479 1808.67270 1782.04533 1753.01417 1720.50400 1685.96195 1649.12088 1617.36962 1587.62214 1557.26288 1524.52133 1499.28341 1474.83260 1450.56904 1427.39212 1406.14097 1386.66343 1369.05638 1352.95510 1339.27704 1326.27302 1313.20488 1299.76304 1284.20422 1275.25609 1280.29209 1281.91461 1273.38522 1248.38185 1192.42690
   4.00000 2389.24935 2374.15211 2339.77453 2248.85778 2096.70741 2052.56835 2144.99054 2222.83751 2262.62074 2281.83353 2285.27479 2280.35400 2273.09341 2262.11682 2247.88445 2235.80124 2219.86006 2199.83540 2182.82832 2167.34883 2147.53653 2123.75481 2106.85815 2085.57019 2061.60739 2041.86654 2020.00630 1998.12618 1974.04294 1949.56107 1922.99208 1896.13460 1866.64016 1833.24675 1797.50060 1759.12211 1726.05705 1695.06749 1663.37973 1629.09476 1602.95794 1577.63689 1552.40940 1528.29040 1506.20663 1486.00955 1467.83402 1451.24479 1437.27011 1424.01406 1410.67953 1397.02299 1381.25261 1372.99016 1380.17485 1383.39553 1375.14128 1348.44930 1287.01653
   5.00000 2432.34947 2418.42035 2384.78263 2293.32299 2138.98352 2095.00887 2191.29673 2272.68874 2315.09788 2336.44576 2341.65051 2338.28636 2332.52058 2322.97676 2310.07998 2299.36799 2284.68419 2265.76895 2249.98783 2235.75851 2217.00985 2194.12813 2178.36374 2158.03555 2134.89562 2116.09289 2095.05286 2073.94274 2050.47256 2026.53719 2000.38044 1973.88078 1944.57900 1911.08089 1874.99592 1836.03153 1802.52097 1771.12172 1738.94844 1704.00898 1677.66532 1652.14690 1626.64265 1602.25109 1579.96379 1559.63622 1541.43295 1524.86766 1511.05293 1497.98401 1484.81943 1471.36590 1455.79483 1448.41803 1457.62310 1462.44592 1454.76487 1427.09944 1361.68525
   6.00000 2455.95728 2442.89094 2409.88883 2318.35017 2162.99127 2119.32337 2218.05854 2301.74951 2345.95247 2368.82907 2375.36126 2373.21695 2368.64838 2360.27800 2348.50811 2338.95768 2325.37667 2307.48205 2292.80576 2279.70772 2261.98060 2240.02280 2225.34230 2205.99333 2183.74905 2165.92560 2145.79234 2125.56079 2102.86697 2079.66578 2054.15295 2028.26083 1999.45135 1966.23428 1930.26007 1891.22361 1857.73461 1826.37642 1794.18252 1759.09128 1732.91853 1707.57347 1682.17867 1657.89444 1635.76145 1615.63905 1597.71534 1581.46596 1568.06922 1555.43737 1542.69453 1529.68656 1514.55618 1508.16159 1519.25478 1525.64242 1518.70752 1490.54068 1422.17719
   7.00000 2469.11382 2456.65362 2424.13754 2332.68214 2176.86230 2133.49594 2233.79432 2318.98537 2364.40950 2388.36541 2395.86975 2394.64475 2390.99353 2383.53738 2372.66389 2364.04266 2351.36446 2334.33022 2320.57844 2308.43251 2291.59571 2270.47268 2256.74210 2238.28224 2216.87894 2199.96120 2180.69209 2161.31265 2139.40676 2116.96990 2092.16312 2066.95570 2038.75247 2005.99230 1970.35231 1931.51586 1898.29315 1867.21398 1835.25166 1800.29173 1774.48968 1749.51658 1724.44445 1700.48000 1678.70158 1658.97208 1641.49845 1625.72743 1612.88937 1600.83205 1588.65240 1576.22722 1561.67638 1556.29817 1569.14557 1577.03552 1570.94249 1542.59595 1472.02847
   8.00000 2476.53623 2464.48931 2432.32379 2340.99047 2184.97523 2141.85857 2243.16068 2329.33363 2375.58615 2400.29626 2408.49977 2407.95094 2404.98386 2398.21904 2388.03459 2380.13227 2368.16500 2351.82282 2338.81349 2327.43711 2311.33769 2290.92312 2277.98661 2260.28816 2239.62130 2223.49228 2204.99103 2186.37856 2165.20167 2143.48367 2119.36033 2094.82661 2067.24556 2035.00308 1999.79373 1961.29052 1928.45083 1897.76524 1866.16189 1831.48559 1806.14911 1781.64424 1757.00397 1733.47025 1712.15066 1692.91121 1675.97412 1660.76385 1648.55239 1637.13688 1625.59243 1613.82058 1599.92278 1595.55604 1610.02485 1619.33964 1614.13391 1585.82966 1513.61178
   9.00000 2480.76207 2468.99143 2437.07012 2345.85101 2189.76384 2146.83822 2248.78687 2335.60355 2382.41616 2407.64916 2416.34910 2416.28941 2413.82339 2407.57111 2397.90468 2390.54660 2379.12552 2363.32413 2350.89576 2340.12566 2324.61835 2304.78334 2292.49156 2275.42289 2255.37562 2239.90946 2222.06362 2204.11289 2183.57754 2162.50021 2138.99817 2115.08446 2088.09133 2056.36486 2021.61097 1983.49364 1951.07930 1920.82950 1889.63817 1855.31844 1830.47975 1806.47765 1782.31475 1759.25998 1738.44380 1719.73496 1703.36810 1688.75040 1677.18749 1666.43629 1655.55432 1644.46307 1631.24897 1627.86415 1643.82505 1654.47893 1650.17234 1622.06332 1548.61383
  10.00000 2483.58800 2471.73303 2440.21168 2349.17267 2193.36336 2150.70954 2253.04487 2340.15537 2387.18630 2412.70277 2421.69625 2421.96325 2419.85200 2413.99131 2404.71045 2397.75153 2386.74831 2371.38888 2359.40583 2349.09231 2334.05599 2314.70910 2302.92495 2286.36452 2266.82933 2251.91236 2234.60406 2217.20561 2197.21508 2176.70639 2153.74867 2130.40237 2103.95584 2072.73032 2038.43937 2000.71211 1968.69911 1938.84870 1908.06149 1874.13248 1849.79061 1826.29879 1802.62681 1780.06973 1759.76268 1741.58304 1725.77582 1711.72600 1700.77089 1690.64149 1680.37780 1669.92419 1657.35812 1654.85395 1672.06489 1683.81885 1680.24669 1652.32809 1577.93048
  11.00000 2487.46480 2473.84465 2444.04038 2353.76441 2200.13797 2158.55726 2260.84465 2347.19032 2393.25574 2418.41236 2427.20515 2427.52158 2425.58260 2420.07543 2411.06144 2404.31898 2393.62621 2378.74911 2367.06451 2356.98271 2342.31665 2323.48510 2312.02698 2295.83815 2276.71748 2262.24378 2245.30048 2228.30931 2208.73681 2188.78900 2166.28010 2143.52416 2117.64511 2086.98439 2053.25830 2015.89665 1984.12058 1954.42291 1923.92332 1890.44847 1866.60138 1843.65719 1820.50486 1798.49127 1778.66908 1760.96202 1745.62275 1731.96546 1721.37887 1711.61569 1701.68179 1691.58116 1679.40779 1677.36527 1694.93708 1706.73872 1702.90760 1674.59208 1599.34928
  12.00000 2492.36395 2475.67841 2448.59025 2359.73387 2210.01886 2170.28354 2272.05653 2356.58747 2400.60966 2424.82431 2432.97555 2433.10764 2431.18674 2425.98838 2417.14867 2410.46241 2399.97974 2385.62187 2374.11099 2364.06143 2349.68088 2331.38090 2320.07897 2304.14490 2285.35738 2271.22259 2254.49317 2237.77708 2218.50989 2199.10733 2176.95860 2154.80128 2129.49685 2099.45326 2066.37811 2029.36723 1997.69071 1967.93277 1937.61673 1904.64762 1881.28538 1858.91079 1836.29363 1814.85218 1795.48329 1778.18788 1763.22122 1749.78810 1739.34396 1729.70738 1719.83535 1709.82105 1697.80237 1695.83896 1712.96823 1723.86959 1718.89198 1689.65344 1613.67813
  13.00000 2497.97351 2477.49780 2453.65635 2366.84886 2222.34691 2185.08160 2285.88935 2367.70521 2408.86166 2431.68866 2438.86698 2438.64944 2436.63367 2431.68952 2422.96189 2416.20753 2405.84686 2392.02653 2380.59502 2370.42323 2356.26215 2338.48741 2327.19869 2311.43021 2292.91398 2279.02146 2262.39009 2245.84093 2226.78942 2207.90321 2186.03944 2164.46643 2139.72334 2110.32607 2077.95669 2041.29324 2009.62563 1979.65917 1949.45041 1917.02006 1894.12506 1872.32216 1850.23962 1829.37716 1810.42697 1793.48635 1778.80651 1765.46039 1754.97813 1745.27878 1735.26015 1725.12224 1713.07181 1710.89264 1726.96888 1736.25958 1729.48627 1698.94786 1622.37162
  14.00000 2504.01509 2479.49869 2459.06145 2374.89197 2236.54168 2202.23927 2301.64833 2379.98930 2417.67959 2438.79112 2444.76017 2444.08533 2441.89660 2437.14596 2428.49345 2421.57759 2411.26261 2397.98277 2386.56180 2376.15235 2362.16044 2344.88668 2333.49240 2317.82363 2299.53333 2285.79441 2269.17559 2252.70636 2233.80085 2215.39175 2193.74955 2172.72850 2148.51696 2119.77560 2088.14023 2051.82974 2020.11911 1989.85023 1959.69612 1927.82202 1905.37088 1884.12581 1862.56446 1842.27028 1823.70241 1807.06389 1792.59435 1779.22566 1768.56454 1758.65687 1748.33466 1737.91242 1725.68805 1723.07208 1737.64786 1744.82017 1735.80646 1703.72032 1626.68921
  15.00000 2510.24236 2481.81775 2464.65363 2383.66070 2252.09532 2221.13177 2318.72778 2392.96550 2426.78082 2445.95006 2450.55521 2449.36323 2446.95261 2442.33182 2433.73821 2426.59370 2416.25942 2403.51054 2392.05245 2381.32346 2367.46342 2350.65268 2339.05580 2323.44024 2305.34420 2291.67846 2275.01241 2258.55466 2239.74241 2221.76341 2200.28983 2179.77437 2156.05168 2127.95945 2097.06387 2061.11845 2029.34436 1998.72414 1968.59185 1937.27874 1915.24393 1894.53044 1873.46675 1853.71636 1835.49374 1819.10883 1804.78200 1791.30550 1780.35948 1770.13585 1759.39726 1748.57238 1736.06952 1732.85708 1745.62120 1750.33837 1738.81322 1705.04193 1627.71245
  16.00000 2516.43950 2484.54029 2470.30408 2392.96755 2268.56667 2241.21482 2336.60410 2406.23262 2435.92795 2453.01374 2456.16987 2454.43999 2451.78251 2447.22771 2438.69337 2431.27512 2420.86739 2408.62997 2397.10440 2386.00253 2372.24771 2355.85197 2343.97488 2328.38193 2310.45960 2296.79497 2280.04356 2263.54494 2244.78755 2227.18615 2205.83733 2185.77067 2162.48435 2135.02105 2104.85238 2069.28868 2037.45572 2006.47181 1976.34487 1945.58716 1923.93851 1903.72105 1883.12388 1863.88237 1845.96813 1829.79256 1815.54944 1801.90116 1790.59417 1779.97942 1768.74926 1757.43968 1744.58538 1740.66714 1751.42055 1753.48827 1739.32622 1703.82582 1626.36131
  17.00000 2522.41973 2487.70760 2475.90499 2402.63997 2285.57573 2262.01805 2354.82915 2419.45588 2444.92458 2459.85754 2461.53799 2459.28065 2456.37073 2451.82009 2443.35836 2435.63956 2425.11447 2413.36136 2401.75180 2390.24775 2376.57996 2360.54438 2348.32674 2332.73855 2314.97833 2301.25110 2284.39405 2267.81611 2249.08711 2231.80737 2210.54737 2190.86540 2167.95606 2141.09071 2111.62085 2076.45826 2044.59028 2013.25935 1983.13458 1952.91856 1931.62442 1911.86088 1891.69373 1872.91866 1855.27691 1839.27064 1825.06040 1811.19481 1799.47642 1788.42302 1776.65769 1764.81202 1751.55963 1746.86672 1755.50107 1754.84183 1738.03767 1700.84212 1623.40952
  18.00000 2528.02377 2491.32370 2481.36750 2412.52026 2302.79836 2283.13876 2373.02385 2432.36064 2453.61139 2466.38143 2466.60792 2463.85780 2460.70512 2456.10076 2447.73466 2439.70341 2429.02674 2417.72510 2406.02588 2394.11025 2380.51792 2364.78363 2352.18037 2336.58910 2318.98629 2305.14104 2288.17259 2271.48872 2252.77146 2235.75571 2214.55544 2195.18952 2172.59331 2146.28651 2117.47523 2082.73438 2050.86942 2019.23048 1989.11521 1959.42095 1938.44930 1919.09335 1899.31621 1880.96024 1863.55671 1847.68381 1833.46340 1819.35089 1807.19238 1795.67591 1783.35808 1770.95050 1757.27490 1751.77028 1758.24897 1754.87913 1735.52501 1696.73213 1619.49909
  19.00000 2533.11834 2495.36167 2486.61987 2422.46548 2319.96128 2304.23602 2390.87221 2444.72646 2461.86244 2472.50758 2471.34109 2468.15098 2464.77688 2460.06633 2451.82568 2443.48194 2432.62858 2421.74162 2409.95527 2397.63483 2384.11135 2368.61788 2355.59736 2340.00276 2322.55779 2308.54725 2291.47314 2274.66675 2255.95245 2239.14287 2217.97908 2198.85842 2176.50923 2150.71526 2122.51295 2088.21436 2056.40018 2024.50872 1994.41831 1965.22134 1944.54066 1925.54384 1906.11487 1888.12791 1870.93050 1855.15908 1840.89276 1826.51723 1813.90804 1801.92325 1789.05697 1776.08278 1761.97610 1755.64698 1759.98847 1753.99797 1732.26292 1692.02166 1615.15403
  20.00000 2537.59463 2499.76942 2491.60566 2432.34717 2336.83732 2325.02502 2408.11558 2456.38152 2469.58160 2478.17801 2475.71060 2472.14599 2468.58029 2463.71768 2455.63661 2446.98955 2435.94287 2425.43136 2413.56628 2400.86072 2387.40302 2372.09031 2358.63255 2343.03990 2325.75679 2311.54157 2294.37638 2277.43920 2258.72527 2242.06518 2220.91958 2201.97331 2179.80463 2154.47332 2126.82344 2092.98646 2061.27670 2029.19948 1999.15519 1970.42796 1950.00794 1931.32134 1912.19827 1894.52943 1877.50853 1861.81064 1847.46953 1832.82627 1819.77075 1807.32796 1793.93436 1780.40592 1765.87389 1758.72517 1760.98849 1752.52285 1728.63455 1687.13350 1610.79308
  21.00000 2541.36680 2504.47503 2496.28209 2442.05114 2353.24098 2345.27175 2424.54716 2467.19734 2476.69933 2483.35247 2479.69994 2475.83439 2472.11266 2467.05951 2459.17426 2450.23991 2438.99111 2428.81466 2416.88322 2403.82211 2390.42946 2375.23958 2361.33471 2345.75302 2328.63797 2314.18634 2296.95110 2279.88169 2261.17022 2244.60516 2223.46368 2204.62253 2182.56904 2157.64744 2130.48871 2097.13055 2065.58140 2033.39202 2003.41907 1975.13217 1954.94431 1936.52005 1917.66137 1900.26051 1883.38936 1867.74081 1853.30243 1838.39614 1824.91070 1812.03256 1798.14608 1784.08922 1769.14789 1761.19654 1761.46872 1750.71344 1724.94202 1682.39915 1606.74182
  22.00000 2544.37049 2509.39161 2500.61845 2451.47708 2369.02420 2364.78802 2440.00693 2477.08385 2483.16949 2488.00637 2483.30175 2479.21288 2475.37404 2470.09987 2462.44693 2453.24612 2441.79362 2431.91176 2419.92861 2406.54883 2393.22179 2378.10029 2363.74710 2348.18754 2331.24783 2316.53532 2299.25546 2282.05784 2263.35433 2246.83300 2225.68499 2206.88277 2184.88172 2160.31549 2133.58378 2100.71882 2069.38621 2037.16129 2007.28722 1979.41044 1959.42849 1941.22087 1922.58680 1905.40585 1888.66071 1873.04094 1858.48870 1843.33172 1829.44224 1816.16090 1801.82592 1787.27679 1771.94972 1763.22005 1761.60546 1748.77238 1721.41624 1678.06978 1603.24381
  23.00000 2546.56129 2514.42173 2504.59465 2460.53823 2384.07238 2383.42670 2454.37673 2485.98472 2488.96648 2492.12890 2486.51667 2482.28276 2478.36710 2472.84971 2465.46428 2456.02085 2444.36963 2434.74270 2422.72343 2409.06682 2395.80641 2380.70346 2365.90801 2350.38270 2333.62567 2318.63468 2301.33822 2284.02066 2265.33285 2248.80781 2227.64550 2208.82023 2186.81255 2162.54720 2136.17721 2103.81641 2072.75363 2040.56956 2010.82284 1983.32605 1963.52631 1945.49280 1927.04606 1910.04007 1893.40037 1877.79222 1863.11493 1847.72569 1833.46520 1819.81981 1805.08770 1790.09004 1774.40590 1764.92557 1761.53697 1746.85261 1718.22606 1674.32643 1600.47115
  24.00000 2547.91330 2519.46143 2508.19982 2469.16092 2398.30066 2401.07728 2467.57567 2493.87302 2494.08251 2495.72121 2489.35228 2485.04946 2481.09695 2475.32248 2468.23713 2458.57648 2446.73740 2437.32728 2425.28727 2411.39867 2398.20566 2383.07686 2367.85129 2352.37222 2335.80443 2320.52382 2303.23982 2285.81379 2267.15071 2250.57897 2229.39688 2210.49172 2188.42290 2164.40486 2138.33149 2106.48199 2075.73783 2043.66808 2014.07686 1986.93071 1967.29231 1949.39423 1931.10066 1914.22864 1897.67697 1882.06652 1867.25791 1851.65943 1837.06612 1823.10065 1808.02725 1792.62996 1776.62051 1766.41735 1761.36843 1745.06415 1715.48678 1671.28950 1598.53416
  25.00000 2548.41765 2524.40378 2511.43110 2477.28414 2411.65045 2417.66166 2479.55583 2500.74719 2498.52508 2498.79473 2491.82203 2487.52200 2483.57092 2477.53375 2470.77736 2460.92514 2448.91433 2439.68501 2427.63857 2413.56404 2400.43843 2385.24541 2369.60682 2354.18501 2337.81159 2322.23620 2304.99345 2287.47264 2268.84382 2252.18724 2230.98168 2211.94564 2189.76644 2165.94391 2140.10353 2108.76833 2078.38554 2046.49849 2017.08964 1990.26612 1970.77107 1952.97415 1934.80317 1918.02867 1901.55079 1885.92714 1870.98534 1855.20402 1840.31945 1826.08077 1810.72422 1794.97933 1778.67772 1767.77713 1761.17654 1743.48036 1713.26796 1669.02753 1597.49039
  26.00000 2548.41765 2524.40378 2514.29241 2484.85895 2424.08616 2433.13028 2490.29817 2506.62724 2502.31457 2501.36960 2493.94436 2489.71252 2485.79835 2479.50081 2473.09776 2463.07885 2450.91703 2441.83502 2429.79471 2415.58010 2402.52068 2387.23148 2371.20090 2355.84579 2339.66990 2323.80002 2306.62599 2289.02551 2270.44024 2253.66585 2232.43452 2213.22291 2190.88990 2167.21359 2141.54499 2110.72281 2080.73695 2049.09416 2019.89245 1993.36532 1973.99859 1956.27332 1938.19821 1921.48976 1905.07449 1889.42951 1874.35660 1858.42105 1843.28863 1828.82490 1813.24381 1797.20473 1780.64412 1769.06714 1761.01383 1742.14372 1711.60067 1667.56533 1597.35298
  27.00000 2548.41765 2524.40378 2516.79335 2491.84801 2435.59216 2447.45841 2499.80873 2511.55129 2505.48212 2503.47326 2495.74176 2491.63588 2487.79044 2481.24232 2475.21189 2465.04954 2452.76139 2443.79605 2431.77221 2417.46187 2404.46594 2389.05522 2372.65672 2357.37565 2341.39806 2325.23897 2308.15887 2290.49453 2271.96137 2255.04150 2233.78312 2214.35786 2191.83374 2168.25744 2142.70271 2112.38794 2082.82654 2051.48144 2022.50889 1996.25399 1977.00346 1959.32525 1941.32336 1924.65469 1908.29381 1892.62194 1877.42339 1861.36347 1846.02713 1831.38642 1815.63838 1799.35846 1782.57089 1770.33276 1760.91250 1741.07108 1710.48417 1666.89140 1598.09827
  28.00000 2548.41765 2524.40378 2518.94825 2498.22492 2446.16994 2460.64281 2508.11507 2515.57228 2508.06758 2505.13900 2497.24001 2493.30916 2489.56002 2482.77802 2477.13389 2466.84912 2454.46264 2445.58635 2433.58678 2419.22258 2406.28576 2390.73481 2373.99466 2358.79261 2343.01141 2326.57280 2309.60889 2291.89661 2273.42292 2256.33526 2235.04928 2215.37905 2192.63286 2169.11390 2143.61903 2113.80178 2084.68382 2053.68081 2024.95617 1998.95163 1979.80796 1962.15723 1944.21003 1927.56020 1911.24821 1895.54619 1880.23045 1864.07641 1848.57950 1833.80865 1817.94894 1801.48027 1784.49587 1771.60511 1760.88801 1740.25854 1709.89196 1666.96483 1599.67286
  29.00000 2548.41765 2524.40378 2520.77520 2503.97366 2455.83554 2472.69847 2515.26295 2518.75509 2510.11767 2506.40483 2498.46737 2494.75130 2491.12134 2484.12838 2478.87844 2468.48950 2456.03541 2447.22365 2435.25346 2420.87396 2407.99009 2392.28669 2375.23265 2360.11201 2344.52244 2327.81789 2310.98898 2293.24423 2274.83588 2257.56343 2236.24975 2216.30996 2193.31716 2169.81671 2144.33216 2114.99835 2086.33403 2055.70785 2027.24632 2001.47263 1982.42912 1964.79121 1946.88423 1930.23757 1913.97149 1898.23817 1882.81617 1866.59789 1850.98223 1836.12594 1820.20657 1803.59904 1786.44535 1772.90325 1760.94231 1739.68581 1709.77728 1667.72144 1601.99994
  30.00000 2548.41765 2524.40378 2522.29525 2509.08790 2464.61709 2483.65576 2521.31322 2521.17371 2511.68427 2507.31223 2499.45393 2495.98274 2492.48988 2485.31432 2480.46052 2469.98262 2457.49373 2448.72512 2436.78665 2422.42651 2409.58765 2393.72581 2376.38646 2361.34700 2345.94135 2328.98776 2312.30879 2294.54624 2276.20732 2258.73829 2237.39704 2217.16972 2193.91210 2170.39544 2144.87643 2116.00806 2087.79874 2057.57423 2029.38716 2003.82722 1984.87960 1967.24457 1949.36733 1932.71325 1916.49240 1900.72845 1885.21315 1868.95952 1853.26468 1838.36473 1822.43374 1805.73428 1788.43587 1774.23635 1761.06680 1739.32013 1710.07815 1669.07949 1604.98512
  31.00000 2548.41765 2524.40378 2523.53159 2513.57033 2472.55262 2493.55769 2526.33899 2522.90885 2512.82290 2507.90515 2500.23095 2497.02499 2493.68216 2486.35696 2481.89534 2471.34045 2458.85109 2450.10727 2438.20024 2423.88970 2411.08618 2395.06579 2377.46999 2362.50888 2347.27651 2330.09358 2313.57537 2295.80852 2277.54124 2259.86879 2238.50019 2217.97368 2194.43927 2170.87586 2145.28266 2116.85802 2089.09643 2059.28850 2031.38333 2006.02239 1987.16856 1969.53095 1951.67671 1935.00947 1918.83517 1903.04286 1887.44880 1871.18723 1855.44989 1840.54462 1824.64548 1807.89752 1790.47573 1775.60554 1761.24494 1739.11988 1710.72184 1670.94470 1608.52162
  32.00000 2548.41765 2524.40378 2524.50893 2517.43198 2479.68803 2502.45742 2530.42294 2524.04561 2513.59131 2508.22906 2500.83027 2497.90035 2494.71553 2487.27736 2483.19822 2472.57498 2460.12043 2451.38594 2439.50761 2425.27222 2412.49277 2396.31910 2378.49548 2363.60745 2348.53483 2331.14448 2314.79368 2297.03457 2278.83918 2260.96119 2239.56539 2218.73403 2194.91679 2171.28033 2145.57838 2117.57243 2090.24300 2060.85688 2033.23709 2008.06263 1989.30239 1971.66084 1953.82638 1937.14472 1921.02000 1905.20295 1889.54588 1873.30180 1857.55533 1842.67922 1826.85052 1810.09364 1792.56648 1777.00565 1761.45461 1739.03769 1711.62885 1673.21483 1612.49494
  33.00000 2548.41765 2524.40378 2525.25284 2520.69150 2486.07523 2510.41599 2533.65497 2524.67152 2514.04820 2508.33006 2501.28382 2498.63155 2495.60794 2488.09630 2484.38440 2473.69821 2461.31416 2452.57627 2440.72164 2426.58208 2413.81402 2397.49722 2379.47376 2364.65129 2349.72214 2332.14805 2315.96703 2298.22613 2280.10089 2262.01960 2240.59657 2219.46029 2195.35980 2171.62820 2145.78809 2118.17281 2091.25223 2062.28387 2034.94908 2009.95068 1991.28541 1973.64226 1955.82752 1939.13426 1923.06356 1907.22654 1891.52295 1875.31954 1859.59364 1844.77705 1829.05230 1812.32199 1794.70419 1778.42676 1761.67018 1739.02323 1712.71647 1675.78368 1616.78697
  34.00000 2548.41765 2524.40378 2525.78921 2523.37444 2491.77047 2517.50026 2536.12988 2524.87466 2514.25216 2508.25408 2501.62312 2499.24152 2496.37779 2488.83403 2485.46900 2474.72214 2462.44415 2453.69259 2441.85480 2427.82685 2415.05627 2398.61072 2380.41440 2365.64801 2350.84353 2333.11053 2317.09757 2299.38358 2281.32485 2263.04649 2241.59599 2220.15975 2195.78082 2171.93607 2145.93354 2118.67833 2092.13619 2063.57288 2036.51901 2011.68807 1993.12042 1975.48127 1957.68903 1940.99058 1924.97943 1909.12811 1893.39489 1877.25279 1861.57330 1846.84234 1831.24993 1814.57750 1796.88066 1779.85554 1761.86432 1739.02561 1713.90182 1678.54460 1621.27962
  35.00000 2548.41765 2524.40378 2526.14380 2525.51251 2496.83283 2523.78105 2537.94543 2524.74210 2514.26062 2508.04625 2501.87886 2499.75300 2497.04372 2489.51014 2486.46684 2475.65868 2463.52174 2454.74844 2442.91911 2429.01367 2416.22572 2399.66942 2381.32593 2366.60446 2351.90356 2334.03721 2318.18662 2300.50642 2282.50873 2264.04312 2242.56460 2220.83793 2196.19013 2172.21815 2146.03389 2119.10600 2092.90557 2064.72669 2037.94616 2013.27572 1994.80930 1977.18248 1959.41795 1942.72379 1926.77851 1910.91923 1895.17332 1879.11046 1863.49925 1848.87574 1833.43904 1816.85164 1799.08447 1781.27648 1762.00962 1738.99549 1715.10456 1681.39359 1625.85796
  36.00000 2548.41765 2524.40378 2526.34175 2527.14279 2501.32289 2529.33141 2539.20046 2524.35844 2514.12899 2507.75021 2502.08055 2500.18841 2497.62442 2490.14335 2487.39237 2476.51969 2464.55770 2455.75650 2443.92614 2430.14944 2417.32858 2400.68244 2382.21591 2367.52695 2352.90651 2334.93260 2319.23496 2301.59362 2283.64984 2265.00993 2243.50255 2221.49888 2196.59607 2172.48649 2146.10598 2119.47098 2093.57004 2065.74789 2039.22990 2014.71437 1996.35340 1978.74947 1961.01989 1944.34201 1928.46941 1912.60899 1896.86705 1880.89851 1865.37343 1850.87498 1835.61252 1819.13328 1801.30192 1782.67291 1762.07984 1738.88680 1716.24914 1684.23188 1630.41291
  37.00000 2548.41765 2524.40378 2526.40732 2528.30706 2505.30152 2534.22517 2539.99326 2523.80464 2513.90998 2507.40762 2502.25617 2500.56953 2498.13843 2490.75135 2488.25952 2477.31686 2465.56222 2456.72856 2444.88700 2431.24080 2418.37111 2401.65827 2383.09113 2368.42134 2353.85657 2335.80066 2320.24317 2302.64393 2284.74543 2265.94686 2244.40946 2222.14556 2197.00534 2172.75125 2146.16447 2119.78671 2094.13844 2066.63927 2040.37010 2016.00496 1997.75396 1980.18516 1962.49938 1945.85171 1930.05878 1914.20431 1898.48240 1882.62037 1867.19537 1852.83554 1837.76129 1821.40951 1803.51784 1784.02795 1762.05107 1738.65821 1717.26662 1686.96809 1634.84346
  38.00000 2548.41765 2524.40378 2526.36350 2529.05098 2508.82883 2538.53561 2540.42011 2523.15692 2513.65286 2507.05769 2502.43189 2500.91730 2498.60398 2491.35069 2489.08167 2478.06168 2466.54491 2457.67548 2445.81234 2432.29425 2419.35972 2402.60485 2383.95767 2369.29319 2354.75797 2336.64496 2321.21178 2303.65616 2285.79304 2266.85364 2245.28475 2222.78009 2197.42326 2173.02092 2146.22203 2120.06511 2094.61910 2067.40405 2041.36746 2017.14895 1999.01243 1981.49216 1963.86018 1947.25803 1931.55166 1915.71032 1900.02362 1884.27741 1868.96262 1854.75113 1839.87486 1823.66625 1805.71639 1785.32522 1761.90265 1738.27427 1718.09624 1689.52008 1639.05851
  39.00000 2548.41765 2524.40378 2526.23182 2529.42338 2511.96330 2542.33426 2540.57398 2522.48594 2513.40304 2506.73676 2502.63186 2501.25167 2499.03882 2491.95663 2489.87148 2478.76539 2467.51474 2458.60720 2446.71231 2433.31615 2420.30098 2403.52957 2384.82097 2370.14785 2355.61508 2337.46886 2322.14150 2304.62936 2286.79067 2267.72999 2246.12788 2223.40401 2197.85399 2173.30251 2146.28953 2120.31674 2095.01995 2068.04616 2042.22371 2018.14860 2000.13072 1982.67302 1965.10558 1948.56506 1932.95175 1917.13063 1901.49323 1885.86926 1870.67123 1856.61422 1841.94190 1825.88896 1807.88159 1786.54955 1761.61780 1737.70630 1718.68656 1691.81625 1642.97829
  40.00000 2548.41765 2524.40378 2526.03211 2529.47548 2514.76096 2545.68995 2540.54340 2521.85604 2513.20156 2506.47803 2502.87798 2501.59135 2499.46006 2492.58306 2490.64086 2479.43891 2468.48001 2459.53265 2447.59649 2434.31274 2421.20166 2404.43934 2385.68594 2370.99052 2356.43250 2338.27557 2323.03334 2305.56305 2287.73701 2268.57584 2246.93853 2224.01845 2198.30070 2173.60173 2146.37616 2120.55096 2095.34870 2068.57039 2042.94188 2019.00713 2001.11146 1983.73045 1966.23864 1949.77608 1934.26170 1918.46763 1902.89228 1887.39424 1872.31611 1858.41652 1843.95076 1828.06306 1809.99793 1787.68739 1761.18421 1736.93301 1718.99631 1693.79668 1646.53548
  41.00000 2548.41765 2524.40378 2526.03211 2529.47548 2514.76096 2545.68995 2540.54340 2521.85604 2513.20156 2506.47803 2502.87798 2501.59135 2499.46006 2492.58306 2490.64086 2479.43891 2468.48001 2459.53265 2447.59649 2434.31274 2421.20166 2404.43934 2385.68594 2370.99052 2356.43250 2338.27557 2323.03334 2305.56305 2287.73701 2268.57584 2246.93853 2224.01845 2198.30070 2173.60173 2146.37616 2120.55096 2095.34870 2068.57039 2042.94188 2019.00713 2001.11146 1983.73045 1966.23864 1949.77608 1934.26170 1918.46763 1902.89228 1887.39424 1872.31611 1858.41652 1843.95076 1828.06306 1809.99793 1787.68739 1761.18421 1736.93301 1718.99631 1693.79668 1646.53548
  42.00000 2548.41765 2524.40378 2526.03211 2529.47548 2514.76096 2545.68995 2540.54340 2521.85604 2513.20156 2506.47803 2502.87798 2501.59135 2499.46006 2492.58306 2490.64086 2479.43891 2468.48001 2459.53265 2447.59649 2434.31274 2421.20166 2404.43934 2385.68594 2370.99052 2356.43250 2338.27557 2323.03334 2305.56305 2287.73701 2268.57584 2246.93853 2224.01845 2198.30070 2173.60173 2146.37616 2120.55096 2095.34870 2068.57039 2042.94188 2019.00713 2001.11146 1983.73045 1966.23864 1949.77608 1934.26170 1918.46763 1902.89228 1887.39424 1872.31611 1858.41652 1843.95076 1828.06306 1809.99793 1787.68739 1761.18421 1736.93301 1718.99631 1693.79668 1646.53548
  43.00000 2548.41765 2524.40378 2526.03211 2529.47548 2514.76096 2545.68995 2540.54340 2521.85604 2513.20156 2506.47803 2502.87798 2501.59135 2499.46006 2492.58306 2490.64086 2479.43891 2468.48001 2459.53265 2447.59649 2434.31274 2421.20166 2404.43934 2385.68594 2370.99052 2356.43250 2338.27557 2323.03334 2305.56305 2287.73701 2268.57584 2246.93853 2224.01845 2198.30070 2173.60173 2146.37616 2120.55096 2095.34870 2068.57039 2042.94188 2019.00713 2001.11146 1983.73045 1966.23864 1949.77608 1934.26170 1918.46763 1902.89228 1887.39424 1872.31611 1858.41652 1843.95076 1828.06306 1809.99793 1787.68739 1761.18421 1736.93301 1718.99631 1693.79668 1646.53548
  44.00000 2548.41765 2524.40378 2526.03211 2529.47548 2514.76096 2545.68995 2540.54340 2521.85604 2513.20156 2506.47803 2502.87798 2501.59135 2499.46006 2492.58306 2490.64086 2479.43891 2468.48001 2459.53265 2447.59649 2434.31274 2421.20166 2404.43934 2385.68594 2370.99052 2356.43250 2338.27557 2323.03334 2305.56305 2287.73701 2268.57584 2246.93853 2224.01845 2198.30070 2173.60173 2146.37616 2120.55096 2095.34870 2068.57039 2042.94188 2019.00713 2001.11146 1983.73045 1966.23864 1949.77608 1934.26170 1918.46763 1902.89228 1887.39424 1872.31611 1858.41652 1843.95076 1828.06306 1809.99793 1787.68739 1761.18421 1736.93301 1718.99631 1693.79668 1646.53548
  45.00000 2548.41765 2524.40378 2526.03211 2529.47548 2514.76096 2545.68995 2540.54340 2521.85604 2513.20156 2506.47803 2502.87798 2501.59135 2499.46006 2492.58306 2490.64086 2479.43891 2468.48001 2459.53265 2447.59649 2434.31274 2421.20166 2404.43934 2385.68594 2370.99052 2356.43250 2338.27557 2323.03334 2305.56305 2287.73701 2268.57584 2246.93853 2224.01845 2198.30070 2173.60173 2146.37616 2120.55096 2095.34870 2068.57039 2042.94188 2019.00713 2001.11146 1983.73045 1966.23864 1949.77608 1934.26170 1918.46763 1902.89228 1887.39424 1872.31611 1858.41652 1843.95076 1828.06306 1809.99793 1787.68739 1761.18421 1736.93301 1718.99631 1693.79668 1646.53548
  46.00000 2548.41765 2524.40378 2526.03211 2529.47548 2514.76096 2545.68995 2540.54340 2521.85604 2513.20156 2506.47803 2502.87798 2501.59135 2499.46006 2492.58306 2490.64086 2479.43891 2468.48001 2459.53265 2447.59649 2434.31274 2421.20166 2404.43934 2385.68594 2370.99052 2356.43250 2338.27557 2323.03334 2305.56305 2287.73701 2268.57584 2246.93853 2224.01845 2198.30070 2173.60173 2146.37616 2120.55096 2095.34870 2068.57039 2042.94188 2019.00713 2001.11146 1983.73045 1966.23864 1949.77608 1934.26170 1918.46763 1902.89228 1887.39424 1872.31611 1858.41652 1843.95076 1828.06306 1809.99793 1787.68739 1761.18421 1736.93301 1718.99631 1693.79668 1646.53548
  47.00000 2548.41765 2524.40378 2526.03211 2529.47548 2514.76096 2545.68995 2540.54340 2521.85604 2513.20156 2506.47803 2502.87798 2501.59135 2499.46006 2492.58306 2490.64086 2479.43891 2468.48001 2459.53265 2447.59649 2434.31274 2421.20166 2404.43934 2385.68594 2370.99052 2356.43250 2338.27557 2323.03334 2305.56305 2287.73701 2268.57584 2246.93853 2224.01845 2198.30070 2173.60173 2146.37616 2120.55096 2095.34870 2068.57039 2042.94188 2019.00713 2001.11146 1983.73045 1966.23864 1949.77608 1934.26170 1918.46763 1902.89228 1887.39424 1872.31611 1858.41652 1843.95076 1828.06306 1809.99793 1787.68739 1761.18421 1736.93301 1718.99631 1693.79668 1646.53548
  48.00000 2548.41765 2524.40378 2526.03211 2529.47548 2514.76096 2545.68995 2540.54340 2521.85604 2513.20156 2506.47803 2502.87798 2501.59135 2499.46006 2492.58306 2490.64086 2479.43891 2468.48001 2459.53265 2447.59649 2434.31274 2421.20166 2404.43934 2385.68594 2370.99052 2356.43250 2338.27557 2323.03334 2305.56305 2287.73701 2268.57584 2246.93853 2224.01845 2198.30070 2173.60173 2146.37616 2120.55096 2095.34870 2068.57039 2042.94188 2019.00713 2001.11146 1983.73045 1966.23864 1949.77608 1934.26170 1918.46763 1902.89228 1887.39424 1872.31611 1858.41652 1843.95076 1828.06306 1809.99793 1787.68739 1761.18421 1736.93301 1718.99631 1693.79668 1646.53548
  49.00000 2548.41765 2524.40378 2526.03211 2529.47548 2514.76096 2545.68995 2540.54340 2521.85604 2513.20156 2506.47803 2502.87798 2501.59135 2499.46006 2492.58306 2490.64086 2479.43891 2468.48001 2459.53265 2447.59649 2434.31274 2421.20166 2404.43934 2385.68594 2370.99052 2356.43250 2338.27557 2323.03334 2305.56305 2287.73701 2268.57584 2246.93853 2224.01845 2198.30070 2173.60173 2146.37616 2120.55096 2095.34870 2068.57039 2042.94188 2019.00713 2001.11146 1983.73045 1966.23864 1949.77608 1934.26170 1918.46763 1902.89228 1887.39424 1872.31611 1858.41652 1843.95076 1828.06306 1809.99793 1787.68739 1761.18421 1736.93301 1718.99631 1693.79668 1646.53548
  50.00000 2548.41765 2524.40378 2526.03211 2529.47548 2514.76096 2545.68995 2540.54340 2521.85604 2513.20156 2506.47803 2502.87798 2501.59135 2499.46006 2492.58306 2490.64086 2479.43891 2468.48001 2459.53265 2447.59649 2434.31274 2421.20166 2404.43934 2385.68594 2370.99052 2356.43250 2338.27557 2323.03334 2305.56305 2287.73701 2268.57584 2246.93853 2224.01845 2198.30070 2173.60173 2146.37616 2120.55096 2095.34870 2068.57039 2042.94188 2019.00713 2001.11146 1983.73045 1966.23864 1949.77608 1934.26170 1918.46763 1902.89228 1887.39424 1872.31611 1858.41652 1843.95076 1828.06306 1809.99793 1787.68739 1761.18421 1736.93301 1718.99631 1693.79668 1646.53548
  51.00000 2548.41765 2524.40378 2526.03211 2529.47548 2514.76096 2545.68995 2540.54340 2521.85604 2513.20156 2506.47803 2502.87798 2501.59135 2499.46006 2492.58306 2490.64086 2479.43891 2468.48001 2459.53265 2447.59649 2434.31274 2421.20166 2404.43934 2385.68594 2370.99052 2356.43250 2338.27557 2323.03334 2305.56305 2287.73701 2268.57584 2246.93853 2224.01845 2198.30070 2173.60173 2146.37616 2120.55096 2095.34870 2068.57039 2042.94188 2019.00713 2001.11146 1983.73045 1966.23864 1949.77608 1934.26170 1918.46763 1902.89228 1887.39424 1872.31611 1858.41652 1843.95076 1828.06306 1809.99793 1787.68739 1761.18421 1736.93301 1718.99631 1693.79668 1646.53548
  52.00000 2548.41765 2524.40378 2526.03211 2529.47548 2514.76096 2545.68995 2540.54340 2521.85604 2513.20156 2506.47803 2502.87798 2501.59135 2499.46006 2492.58306 2490.64086 2479.43891 2468.48001 2459.53265 2447.59649 2434.31274 2421.20166 2404.43934 2385.68594 2370.99052 2356.43250 2338.27557 2323.03334 2305.56305 2287.73701 2268.57584 2246.93853 2224.01845 2198.30070 2173.60173 2146.37616 2120.55096 2095.34870 2068.57039 2042.94188 2019.00713 2001.11146 1983.73045 1966.23864 1949.77608 1934.26170 1918.46763 1902.89228 1887.39424 1872.31611 1858.41652 1843.95076 1828.06306 1809.99793 1787.68739 1761.18421 1736.93301 1718.99631 1693.79668 1646.53548
  53.00000 2548.41765 2524.40378 2526.03211 2529.47548 2514.76096 2545.68995 2540.54340 2521.85604 2513.20156 2506.47803 2502.87798 2501.59135 2499.46006 2492.58306 2490.64086 2479.43891 2468.48001 2459.53265 2447.59649 2434.31274 2421.20166 2404.43934 2385.68594 2370.99052 2356.43250 2338.27557 2323.03334 2305.56305 2287.73701 2268.57584 2246.93853 2224.01845 2198.30070 2173.60173 2146.37616 2120.55096 2095.34870 2068.57039 2042.94188 2019.00713 2001.11146 1983.73045 1966.23864 1949.77608 1934.26170 1918.46763 1902.89228 1887.39424 1872.31611 1858.41652 1843.95076 1828.06306 1809.99793 1787.68739 1761.18421 1736.93301 1718.99631 1693.79668 1646.53548
  54.00000 2548.41765 2524.40378 2526.03211 2529.47548 2514.76096 2545.68995 2540.54340 2521.85604 2513.20156 2506.47803 2502.87798 2501.59135 2499.46006 2492.58306 2490.64086 2479.43891 2468.48001 2459.53265 2447.59649 2434.31274 2421.20166 2404.43934 2385.68594 2370.99052 2356.43250 2338.27557 2323.03334 2305.56305 2287.73701 2268.57584 2246.93853 2224.01845 2198.30070 2173.60173 2146.37616 2120.55096 2095.34870 2068.57039 2042.94188 2019.00713 2001.11146 1983.73045 1966.23864 1949.77608 1934.26170 1918.46763 1902.89228 1887.39424 1872.31611 1858.41652 1843.95076 1828.06306 1809.99793 1787.68739 1761.18421 1736.93301 1718.99631 1693.79668 1646.53548
  55.00000 2548.41765 2524.40378 2526.03211 2529.47548 2514.76096 2545.68995 2540.54340 2521.85604 2513.20156 2506.47803 2502.87798 2501.59135 2499.46006 2492.58306 2490.64086 2479.43891 2468.48001 2459.53265 2447.59649 2434.31274 2421.20166 2404.43934 2385.68594 2370.99052 2356.43250 2338.27557 2323.03334 2305.56305 2287.73701 2268.57584 2246.93853 2224.01845 2198.30070 2173.60173 2146.37616 2120.55096 2095.34870 2068.57039 2042.94188 2019.00713 2001.11146 1983.73045 1966.23864 1949.77608 1934.26170 1918.46763 1902.89228 1887.39424 1872.31611 1858.41652 1843.95076 1828.06306 1809.99793 1787.68739 1761.18421 1736.93301 1718.99631 1693.79668 1646.53548
  56.00000 2548.41765 2524.40378 2526.03211 2529.47548 2514.76096 2545.68995 2540.54340 2521.85604 2513.20156 2506.47803 2502.87798 2501.59135 2499.46006 2492.58306 2490.64086 2479.43891 2468.48001 2459.53265 2447.59649 2434.31274 2421.20166 2404.43934 2385.68594 2370.99052 2356.43250 2338.27557 2323.03334 2305.56305 2287.73701 2268.57584 2246.93853 2224.01845 2198.30070 2173.60173 2146.37616 2120.55096 2095.34870 2068.57039 2042.94188 2019.00713 2001.11146 1983.73045 1966.23864 1949.77608 1934.26170 1918.46763 1902.89228 1887.39424 1872.31611 1858.41652 1843.95076 1828.06306 1809.99793 1787.68739 1761.18421 1736.93301 1718.99631 1693.79668 1646.53548
  57.00000 2548.41765 2524.40378 2526.03211 2529.47548 2514.76096 2545.68995 2540.54340 2521.85604 2513.20156 2506.47803 2502.87798 2501.59135 2499.46006 2492.58306 2490.64086 2479.43891 2468.48001 2459.53265 2447.59649 2434.31274 2421.20166 2404.43934 2385.68594 2370.99052 2356.43250 2338.27557 2323.03334 2305.56305 2287.73701 2268.57584 2246.93853 2224.01845 2198.30070 2173.60173 2146.37616 2120.55096 2095.34870 2068.57039 2042.94188 2019.00713 2001.11146 1983.73045 1966.23864 1949.77608 1934.26170 1918.46763 1902.89228 1887.39424 1872.31611 1858.41652 1843.95076 1828.06306 1809.99793 1787.68739 1761.18421 1736.93301 1718.99631 1693.79668 1646.53548
  58.00000 2548.41765 2524.40378 2526.03211 2529.47548 2514.76096 2545.68995 2540.54340 2521.85604 2513.20156 2506.47803 2502.87798 2501.59135 2499.46006 2492.58306 2490.64086 2479.43891 2468.48001 2459.53265 2447.59649 2434.31274 2421.20166 2404.43934 2385.68594 2370.99052 2356.43250 2338.27557 2323.03334 2305.56305 2287.73701 2268.57584 2246.93853 2224.01845 2198.30070 2173.60173 2146.37616 2120.55096 2095.34870 2068.57039 2042.94188 2019.00713 2001.11146 1983.73045 1966.23864 1949.77608 1934.26170 1918.46763 1902.89228 1887.39424 1872.31611 1858.41652 1843.95076 1828.06306 1809.99793 1787.68739 1761.18421 1736.93301 1718.99631 1693.79668 1646.53548
  59.00000 2548.41765 2524.40378 2526.03211 2529.47548 2514.76096 2545.68995 2540.54340 2521.85604 2513.20156 2506.47803 2502.87798 2501.59135 2499.46006 2492.58306 2490.64086 2479.43891 2468.48001 2459.53265 2447.59649 2434.31274 2421.20166 2404.43934 2385.68594 2370.99052 2356.43250 2338.27557 2323.03334 2305.56305 2287.73701 2268.57584 2246.93853 2224.01845 2198.30070 2173.60173 2146.37616 2120.55096 2095.34870 2068.57039 2042.94188 2019.00713 2001.11146 1983.73045 1966.23864 1949.77608 1934.26170 1918.46763 1902.89228 1887.39424 1872.31611 1858.41652 1843.95076 1828.06306 1809.99793 1787.68739 1761.18421 1736.93301 1718.99631 1693.79668 1646.53548
  60.00000 2548.41765 2524.40378 2526.03211 2529.47548 2514.76096 2545.68995 2540.54340 2521.85604 2513.20156 2506.47803 2502.87798 2501.59135 2499.46006 2492.58306 2490.64086 2479.43891 2468.48001 2459.53265 2447.59649 2434.31274 2421.20166 2404.43934 2385.68594 2370.99052 2356.43250 2338.27557 2323.03334 2305.56305 2287.73701 2268.57584 2246.93853 2224.01845 2198.30070 2173.60173 2146.37616 2120.55096 2095.34870 2068.57039 2042.94188 2019.00713 2001.11146 1983.73045 1966.23864 1949.77608 1934.26170 1918.46763 1902.89228 1887.39424 1872.31611 1858.41652 1843.95076 1828.06306 1809.99793 1787.68739 1761.18421 1736.93301 1718.99631 1693.79668 1646.53548
  61.00000 2548.41765 2524.40378 2526.03211 2529.47548 2514.76096 2545.68995 2540.54340 2521.85604 2513.20156 2506.47803 2502.87798 2501.59135 2499.46006 2492.58306 2490.64086 2479.43891 2468.48001 2459.53265 2447.59649 2434.31274 2421.20166 2404.43934 2385.68594 2370.99052 2356.43250 2338.27557 2323.03334 2305.56305 2287.73701 2268.57584 2246.93853 2224.01845 2198.30070 2173.60173 2146.37616 2120.55096 2095.34870 2068.57039 2042.94188 2019.00713 2001.11146 1983.73045 1966.23864 1949.77608 1934.26170 1918.46763 1902.89228 1887.39424 1872.31611 1858.41652 1843.95076 1828.06306 1809.99793 1787.68739 1761.18421 1736.93301 1718.99631 1693.79668 1646.53548
  62.00000 2548.41765 2524.40378 2526.03211 2529.47548 2514.76096 2545.68995 2540.54340 2521.85604 2513.20156 2506.47803 2502.87798 2501.59135 2499.46006 2492.58306 2490.64086 2479.43891 2468.48001 2459.53265 2447.59649 2434.31274 2421.20166 2404.43934 2385.68594 2370.99052 2356.43250 2338.27557 2323.03334 2305.56305 2287.73701 2268.57584 2246.93853 2224.01845 2198.30070 2173.60173 2146.37616 2120.55096 2095.34870 2068.57039 2042.94188 2019.00713 2001.11146 1983.73045 1966.23864 1949.77608 1934.26170 1918.46763 1902.89228 1887.39424 1872.31611 1858.41652 1843.95076 1828.06306 1809.99793 1787.68739 1761.18421 1736.93301 1718.99631 1693.79668 1646.53548
  63.00000 2548.41765 2524.40378 2526.03211 2529.47548 2514.76096 2545.68995 2540.54340 2521.85604 2513.20156 2506.47803 2502.87798 2501.59135 2499.46006 2492.58306 2490.64086 2479.43891 2468.48001 2459.53265 2447.59649 2434.31274 2421.20166 2404.43934 2385.68594 2370.99052 2356.43250 2338.27557 2323.03334 2305.56305 2287.73701 2268.57584 2246.93853 2224.01845 2198.30070 2173.60173 2146.37616 2120.55096 2095.34870 2068.57039 2042.94188 2019.00713 2001.11146 1983.73045 1966.23864 1949.77608 1934.26170 1918.46763 1902.89228 1887.39424 1872.31611 1858.41652 1843.95076 1828.06306 1809.99793 1787.68739 1761.18421 1736.93301 1718.99631 1693.79668 1646.53548
  64.00000 2548.41765 2524.40378 2526.03211 2529.47548 2514.76096 2545.68995 2540.54340 2521.85604 2513.20156 2506.47803 2502.87798 2501.59135 2499.46006 2492.58306 2490.64086 2479.43891 2468.48001 2459.53265 2447.59649 2434.31274 2421.20166 2404.43934 2385.68594 2370.99052 2356.43250 2338.27557 2323.03334 2305.56305 2287.73701 2268.57584 2246.93853 2224.01845 2198.30070 2173.60173 2146.37616 2120.55096 2095.34870 2068.57039 2042.94188 2019.00713 2001.11146 1983.73045 1966.23864 1949.77608 1934.26170 1918.46763 1902.89228 1887.39424 1872.31611 1858.41652 1843.95076 1828.06306 1809.99793 1787.68739 1761.18421 1736.93301 1718.99631 1693.79668 1646.53548
  65.00000 2548.41765 2524.40378 2526.03211 2529.47548 2514.76096 2545.68995 2540.54340 2521.85604 2513.20156 2506.47803 2502.87798 2501.59135 2499.46006 2492.58306 2490.64086 2479.43891 2468.48001 2459.53265 2447.59649 2434.31274 2421.20166 2404.43934 2385.68594 2370.99052 2356.43250 2338.27557 2323.03334 2305.56305 2287.73701 2268.57584 2246.93853 2224.01845 2198.30070 2173.60173 2146.37616 2120.55096 2095.34870 2068.57039 2042.94188 2019.00713 2001.11146 1983.73045 1966.23864 1949.77608 1934.26170 1918.46763 1902.89228 1887.39424 1872.31611 1858.41652 1843.95076 1828.06306 1809.99793 1787.68739 1761.18421 1736.93301 1718.99631 1693.79668 1646.53548
  66.00000 2548.41765 2524.40378 2526.03211 2529.47548 2514.76096 2545.68995 2540.54340 2521.85604 2513.20156 2506.47803 2502.87798 2501.59135 2499.46006 2492.58306 2490.64086 2479.43891 2468.48001 2459.53265 2447.59649 2434.31274 2421.20166 2404.43934 2385.68594 2370.99052 2356.43250 2338.27557 2323.03334 2305.56305 2287.73701 2268.57584 2246.93853 2224.01845 2198.30070 2173.60173 2146.37616 2120.55096 2095.34870 2068.57039 2042.94188 2019.00713 2001.11146 1983.73045 1966.23864 1949.77608 1934.26170 1918.46763 1902.89228 1887.39424 1872.31611 1858.41652 1843.95076 1828.06306 1809.99793 1787.68739 1761.18421 1736.93301 1718.99631 1693.79668 1646.53548
  67.00000 2548.41765 2524.40378 2526.03211 2529.47548 2514.76096 2545.68995 2540.54340 2521.85604 2513.20156 2506.47803 2502.87798 2501.59135 2499.46006 2492.58306 2490.64086 2479.43891 2468.48001 2459.53265 2447.59649 2434.31274 2421.20166 2404.43934 2385.68594 2370.99052 2356.43250 2338.27557 2323.03334 2305.56305 2287.73701 2268.57584 2246.93853 2224.01845 2198.30070 2173.60173 2146.37616 2120.55096 2095.34870 2068.57039 2042.94188 2019.00713 2001.11146 1983.73045 1966.23864 1949.77608 1934.26170 1918.46763 1902.89228 1887.39424 1872.31611 1858.41652 1843.95076 1828.06306 1809.99793 1787.68739 1761.18421 1736.93301 1718.99631 1693.79668 1646.53548
  68.00000 2548.41765 2524.40378 2526.03211 2529.47548 2514.76096 2545.68995 2540.54340 2521.85604 2513.20156 2506.47803 2502.87798 2501.59135 2499.46006 2492.58306 2490.64086 2479.43891 2468.48001 2459.53265 2447.59649 2434.31274 2421.20166 2404.43934 2385.68594 2370.99052 2356.43250 2338.27557 2323.03334 2305.56305 2287.73701 2268.57584 2246.93853 2224.01845 2198.30070 2173.60173 2146.37616 2120.55096 2095.34870 2068.57039 2042.94188 2019.00713 2001.11146 1983.73045 1966.23864 1949.77608 1934.26170 1918.46763 1902.89228 1887.39424 1872.31611 1858.41652 1843.95076 1828.06306 1809.99793 1787.68739 1761.18421 1736.93301 1718.99631 1693.79668 1646.53548
  69.00000 2548.41765 2524.40378 2526.03211 2529.47548 2514.76096 2545.68995 2540.54340 2521.85604 2513.20156 2506.47803 2502.87798 2501.59135 2499.46006 2492.58306 2490.64086 2479.43891 2468.48001 2459.53265 2447.59649 2434.31274 2421.20166 2404.43934 2385.68594 2370.99052 2356.43250 2338.27557 2323.03334 2305.56305 2287.73701 2268.57584 2246.93853 2224.01845 2198.30070 2173.60173 2146.37616 2120.55096 2095.34870 2068.57039 2042.94188 2019.00713 2001.11146 1983.73045 1966.23864 1949.77608 1934.26170 1918.46763 1902.89228 1887.39424 1872.31611 1858.41652 1843.95076 1828.06306 1809.99793 1787.68739 1761.18421 1736.93301 1718.99631 1693.79668 1646.53548
  70.00000 2548.41765 2524.40378 2526.03211 2529.47548 2514.76096 2545.68995 2540.54340 2521.85604 2513.20156 2506.47803 2502.87798 2501.59135 2499.46006 2492.58306 2490.64086 2479.43891 2468.48001 2459.53265 2447.59649 2434.31274 2421.20166 2404.43934 2385.68594 2370.99052 2356.43250 2338.27557 2323.03334 2305.56305 2287.73701 2268.57584 2246.93853 2224.01845 2198.30070 2173.60173 2146.37616 2120.55096 2095.34870 2068.57039 2042.94188 2019.00713 2001.11146 1983.73045 1966.23864 1949.77608 1934.26170 1918.46763 1902.89228 1887.39424 1872.31611 1858.41652 1843.95076 1828.06306 1809.99793 1787.68739 1761.18421 1736.93301 1718.99631 1693.79668 1646.53548
  71.00000 2548.41765 2524.40378 2526.03211 2529.47548 2514.76096 2545.68995 2540.54340 2521.85604 2513.20156 2506.47803 2502.87798 2501.59135 2499.46006 2492.58306 2490.64086 2479.43891 2468.48001 2459.53265 2447.59649 2434.31274 2421.20166 2404.43934 2385.68594 2370.99052 2356.43250 2338.27557 2323.03334 2305.56305 2287.73701 2268.57584 2246.93853 2224.01845 2198.30070 2173.60173 2146.37616 2120.55096 2095.34870 2068.57039 2042.94188 2019.00713 2001.11146 1983.73045 1966.23864 1949.77608 1934.26170 1918.46763 1902.89228 1887.39424 1872.31611 1858.41652 1843.95076 1828.06306 1809.99793 1787.68739 1761.18421 1736.93301 1718.99631 1693.79668 1646.53548
  72.00000 2548.41765 2524.40378 2526.03211 2529.47548 2514.76096 2545.68995 2540.54340 2521.85604 2513.20156 2506.47803 2502.87798 2501.59135 2499.46006 2492.58306 2490.64086 2479.43891 2468.48001 2459.53265 2447.59649 2434.31274 2421.20166 2404.43934 2385.68594 2370.99052 2356.43250 2338.27557 2323.03334 2305.56305 2287.73701 2268.57584 2246.93853 2224.01845 2198.30070 2173.60173 2146.37616 2120.55096 2095.34870 2068.57039 2042.94188 2019.00713 2001.11146 1983.73045 1966.23864 1949.77608 1934.26170 1918.46763 1902.89228 1887.39424 1872.31611 1858.41652 1843.95076 1828.06306 1809.99793 1787.68739 1761.18421 1736.93301 1718.99631 1693.79668 1646.53548
  73.00000 2548.41765 2524.40378 2526.03211 2529.47548 2514.76096 2545.68995 2540.54340 2521.85604 2513.20156 2506.47803 2502.87798 2501.59135 2499.46006 2492.58306 2490.64086 2479.43891 2468.48001 2459.53265 2447.59649 2434.31274 2421.20166 2404.43934 2385.68594 2370.99052 2356.43250 2338.27557 2323.03334 2305.56305 2287.73701 2268.57584 2246.93853 2224.01845 2198.30070 2173.60173 2146.37616 2120.55096 2095.34870 2068.57039 2042.94188 2019.00713 2001.11146 1983.73045 1966.23864 1949.77608 1934.26170 1918.46763 1902.89228 1887.39424 1872.31611 1858.41652 1843.95076 1828.06306 1809.99793 1787.68739 1761.18421 1736.93301 1718.99631 1693.79668 1646.53548
  74.00000 2548.41765 2524.40378 2526.03211 2529.47548 2514.76096 2545.68995 2540.54340 2521.85604 2513.20156 2506.47803 2502.87798 2501.59135 2499.46006 2492.58306 2490.64086 2479.43891 2468.48001 2459.53265 2447.59649 2434.31274 2421.20166 2404.43934 2385.68594 2370.99052 2356.43250 2338.27557 2323.03334 2305.56305 2287.73701 2268.57584 2246.93853 2224.01845 2198.30070 2173.60173 2146.37616 2120.55096 2095.34870 2068.57039 2042.94188 2019.00713 2001.11146 1983.73045 1966.23864 1949.77608 1934.26170 1918.46763 1902.89228 1887.39424 1872.31611 1858.41652 1843.95076 1828.06306 1809.99793 1787.68739 1761.18421 1736.93301 1718.99631 1693.79668 1646.53548
  75.00000 2548.41765 2524.40378 2526.03211 2529.47548 2514.76096 2545.68995 2540.54340 2521.85604 2513.20156 2506.47803 2502.87798 2501.59135 2499.46006 2492.58306 2490.64086 2479.43891 2468.48001 2459.53265 2447.59649 2434.31274 2421.20166 2404.43934 2385.68594 2370.99052 2356.43250 2338.27557 2323.03334 2305.56305 2287.73701 2268.57584 2246.93853 2224.01845 2198.30070 2173.60173 2146.37616 2120.55096 2095.34870 2068.57039 2042.94188 2019.00713 2001.11146 1983.73045 1966.23864 1949.77608 1934.26170 1918.46763 1902.89228 1887.39424 1872.31611 1858.41652 1843.95076 1828.06306 1809.99793 1787.68739 1761.18421 1736.93301 1718.99631 1693.79668 1646.53548
  76.00000 2548.41765 2524.40378 2526.03211 2529.47548 2514.76096 2545.68995 2540.54340 2521.85604 2513.20156 2506.47803 2502.87798 2501.59135 2499.46006 2492.58306 2490.64086 2479.43891 2468.48001 2459.53265 2447.59649 2434.31274 2421.20166 2404.43934 2385.68594 2370.99052 2356.43250 2338.27557 2323.03334 2305.56305 2287.73701 2268.57584 2246.93853 2224.01845 2198.30070 2173.60173 2146.37616 2120.55096 2095.34870 2068.57039 2042.94188 2019.00713 2001.11146 1983.73045 1966.23864 1949.77608 1934.26170 1918.46763 1902.89228 1887.39424 1872.31611 1858.41652 1843.95076 1828.06306 1809.99793 1787.68739 1761.18421 1736.93301 1718.99631 1693.79668 1646.53548
  77.00000 2548.41765 2524.40378 2526.03211 2529.47548 2514.76096 2545.68995 2540.54340 2521.85604 2513.20156 2506.47803 2502.87798 2501.59135 2499.46006 2492.58306 2490.64086 2479.43891 2468.48001 2459.53265 2447.59649 2434.31274 2421.20166 2404.43934 2385.68594 2370.99052 2356.43250 2338.27557 2323.03334 2305.56305 2287.73701 2268.57584 2246.93853 2224.01845 2198.30070 2173.60173 2146.37616 2120.55096 2095.34870 2068.57039 2042.94188 2019.00713 2001.11146 1983.73045 1966.23864 1949.77608 1934.26170 1918.46763 1902.89228 1887.39424 1872.31611 1858.41652 1843.95076 1828.06306 1809.99793 1787.68739 1761.18421 1736.93301 1718.99631 1693.79668 1646.53548
  78.00000 2548.41765 2524.40378 2526.03211 2529.47548 2514.76096 2545.68995 2540.54340 2521.85604 2513.20156 2506.47803 2502.87798 2501.59135 2499.46006 2492.58306 2490.64086 2479.43891 2468.48001 2459.53265 2447.59649 2434.31274 2421.20166 2404.43934 2385.68594 2370.99052 2356.43250 2338.27557 2323.03334 2305.56305 2287.73701 2268.57584 2246.93853 2224.01845 2198.30070 2173.60173 2146.37616 2120.55096 2095.34870 2068.57039 2042.94188 2019.00713 2001.11146 1983.73045 1966.23864 1949.77608 1934.26170 1918.46763 1902.89228 1887.39424 1872.31611 1858.41652 1843.95076 1828.06306 1809.99793 1787.68739 1761.18421 1736.93301 1718.99631 1693.79668 1646.53548
  79.00000 2548.41765 2524.40378 2526.03211 2529.47548 2514.76096 2545.68995 2540.54340 2521.85604 2513.20156 2506.47803 2502.87798 2501.59135 2499.46006 2492.58306 2490.64086 2479.43891 2468.48001 2459.53265 2447.59649 2434.31274 2421.20166 2404.43934 2385.68594 2370.99052 2356.43250 2338.27557 2323.03334 2305.56305 2287.73701 2268.57584 2246.93853 2224.01845 2198.30070 2173.60173 2146.37616 2120.55096 2095.34870 2068.57039 2042.94188 2019.00713 2001.11146 1983.73045 1966.23864 1949.77608 1934.26170 1918.46763 1902.89228 1887.39424 1872.31611 1858.41652 1843.95076 1828.06306 1809.99793 1787.68739 1761.18421 1736.93301 1718.99631 1693.79668 1646.53548
  80.00000 2548.41765 2524.40378 2526.03211 2529.47548 2514.76096 2545.68995 2540.54340 2521.85604 2513.20156 2506.47803 2502.87798 2501.59135 2499.46006 2492.58306 2490.64086 2479.43891 2468.48001 2459.53265 2447.59649 2434.31274 2421.20166 2404.43934 2385.68594 2370.99052 2356.43250 2338.27557 2323.03334 2305.56305 2287.73701 2268.57584 2246.93853 2224.01845 2198.30070 2173.60173 2146.37616 2120.55096 2095.34870 2068.57039 2042.94188 2019.00713 2001.11146 1983.73045 1966.23864 1949.77608 1934.26170 1918.46763 1902.89228 1887.39424 1872.31611 1858.41652 1843.95076 1828.06306 1809.99793 1787.68739 1761.18421 1736.93301 1718.99631 1693.79668 1646.53548
  81.00000 2548.41765 2524.40378 2526.03211 2529.47548 2514.76096 2545.68995 2540.54340 2521.85604 2513.20156 2506.47803 2502.87798 2501.59135 2499.46006 2492.58306 2490.64086 2479.43891 2468.48001 2459.53265 2447.59649 2434.31274 2421.20166 2404.43934 2385.68594 2370.99052 2356.43250 2338.27557 2323.03334 2305.56305 2287.73701 2268.57584 2246.93853 2224.01845 2198.30070 2173.60173 2146.37616 2120.55096 2095.34870 2068.57039 2042.94188 2019.00713 2001.11146 1983.73045 1966.23864 1949.77608 1934.26170 1918.46763 1902.89228 1887.39424 1872.31611 1858.41652 1843.95076 1828.06306 1809.99793 1787.68739 1761.18421 1736.93301 1718.99631 1693.79668 1646.53548
  82.00000 2548.41765 2524.40378 2526.03211 2529.47548 2514.76096 2545.68995 2540.54340 2521.85604 2513.20156 2506.47803 2502.87798 2501.59135 2499.46006 2492.58306 2490.64086 2479.43891 2468.48001 2459.53265 2447.59649 2434.31274 2421.20166 2404.43934 2385.68594 2370.99052 2356.43250 2338.27557 2323.03334 2305.56305 2287.73701 2268.57584 2246.93853 2224.01845 2198.30070 2173.60173 2146.37616 2120.55096 2095.34870 2068.57039 2042.94188 2019.00713 2001.11146 1983.73045 1966.23864 1949.77608 1934.26170 1918.46763 1902.89228 1887.39424 1872.31611 1858.41652 1843.95076 1828.06306 1809.99793 1787.68739 1761.18421 1736.93301 1718.99631 1693.79668 1646.53548
  83.00000 2548.41765 2524.40378 2526.03211 2529.47548 2514.76096 2545.68995 2540.54340 2521.85604 2513.20156 2506.47803 2502.87798 2501.59135 2499.46006 2492.58306 2490.64086 2479.43891 2468.48001 2459.53265 2447.59649 2434.31274 2421.20166 2404.43934 2385.68594 2370.99052 2356.43250 2338.27557 2323.03334 2305.56305 2287.73701 2268.57584 2246.93853 2224.01845 2198.30070 2173.60173 2146.37616 2120.55096 2095.34870 2068.57039 2042.94188 2019.00713 2001.11146 1983.73045 1966.23864 1949.77608 1934.26170 1918.46763 1902.89228 1887.39424 1872.31611 1858.41652 1843.95076 1828.06306 1809.99793 1787.68739 1761.18421 1736.93301 1718.99631 1693.79668 1646.53548
  84.00000 2548.41765 2524.40378 2526.03211 2529.47548 2514.76096 2545.68995 2540.54340 2521.85604 2513.20156 2506.47803 2502.87798 2501.59135 2499.46006 2492.58306 2490.64086 2479.43891 2468.48001 2459.53265 2447.59649 2434.31274 2421.20166 2404.43934 2385.68594 2370.99052 2356.43250 2338.27557 2323.03334 2305.56305 2287.73701 2268.57584 2246.93853 2224.01845 2198.30070 2173.60173 2146.37616 2120.55096 2095.34870 2068.57039 2042.94188 2019.00713 2001.11146 1983.73045 1966.23864 1949.77608 1934.26170 1918.46763 1902.89228 1887.39424 1872.31611 1858.41652 1843.95076 1828.06306 1809.99793 1787.68739 1761.18421 1736.93301 1718.99631 1693.79668 1646.53548
  85.00000 2548.41765 2524.40378 2526.03211 2529.47548 2514.76096 2545.68995 2540.54340 2521.85604 2513.20156 2506.47803 2502.87798 2501.59135 2499.46006 2492.58306 2490.64086 2479.43891 2468.48001 2459.53265 2447.59649 2434.31274 2421.20166 2404.43934 2385.68594 2370.99052 2356.43250 2338.27557 2323.03334 2305.56305 2287.73701 2268.57584 2246.93853 2224.01845 2198.30070 2173.60173 2146.37616 2120.55096 2095.34870 2068.57039 2042.94188 2019.00713 2001.11146 1983.73045 1966.23864 1949.77608 1934.26170 1918.46763 1902.89228 1887.39424 1872.31611 1858.41652 1843.95076 1828.06306 1809.99793 1787.68739 1761.18421 1736.93301 1718.99631 1693.79668 1646.53548
  86.00000 2548.41765 2524.40378 2526.03211 2529.47548 2514.76096 2545.68995 2540.54340 2521.85604 2513.20156 2506.47803 2502.87798 2501.59135 2499.46006 2492.58306 2490.64086 2479.43891 2468.48001 2459.53265 2447.59649 2434.31274 2421.20166 2404.43934 2385.68594 2370.99052 2356.43250 2338.27557 2323.03334 2305.56305 2287.73701 2268.57584 2246.93853 2224.01845 2198.30070 2173.60173 2146.37616 2120.55096 2095.34870 2068.57039 2042.94188 2019.00713 2001.11146 1983.73045 1966.23864 1949.77608 1934.26170 1918.46763 1902.89228 1887.39424 1872.31611 1858.41652 1843.95076 1828.06306 1809.99793 1787.68739 1761.18421 1736.93301 1718.99631 1693.79668 1646.53548
  87.00000 2548.41765 2524.40378 2526.03211 2529.47548 2514.76096 2545.68995 2540.54340 2521.85604 2513.20156 2506.47803 2502.87798 2501.59135 2499.46006 2492.58306 2490.64086 2479.43891 2468.48001 2459.53265 2447.59649 2434.31274 2421.20166 2404.43934 2385.68594 2370.99052 2356.43250 2338.27557 2323.03334 2305.56305 2287.73701 2268.57584 2246.93853 2224.01845 2198.30070 2173.60173 2146.37616 2120.55096 2095.34870 2068.57039 2042.94188 2019.00713 2001.11146 1983.73045 1966.23864 1949.77608 1934.26170 1918.46763 1902.89228 1887.39424 1872.31611 1858.41652 1843.95076 1828.06306 1809.99793 1787.68739 1761.18421 1736.93301 1718.99631 1693.79668 1646.53548
  88.00000 2548.41765 2524.40378 2526.03211 2529.47548 2514.76096 2545.68995 2540.54340 2521.85604 2513.20156 2506.47803 2502.87798 2501.59135 2499.46006 2492.58306 2490.64086 2479.43891 2468.48001 2459.53265 2447.59649 2434.31274 2421.20166 2404.43934 2385.68594 2370.99052 2356.43250 2338.27557 2323.03334 2305.56305 2287.73701 2268.57584 2246.93853 2224.01845 2198.30070 2173.60173 2146.37616 2120.55096 2095.34870 2068.57039 2042.94188 2019.00713 2001.11146 1983.73045 1966.23864 1949.77608 1934.26170 1918.46763 1902.89228 1887.39424 1872.31611 1858.41652 1843.95076 1828.06306 1809.99793 1787.68739 1761.18421 1736.93301 1718.99631 1693.79668 1646.53548
  89.00000 2548.41765 2524.40378 2526.03211 2529.47548 2514.76096 2545.68995 2540.54340 2521.85604 2513.20156 2506.47803 2502.87798 2501.59135 2499.46006 2492.58306 2490.64086 2479.43891 2468.48001 2459.53265 2447.59649 2434.31274 2421.20166 2404.43934 2385.68594 2370.99052 2356.43250 2338.27557 2323.03334 2305.56305 2287.73701 2268.57584 2246.93853 2224.01845 2198.30070 2173.60173 2146.37616 2120.55096 2095.34870 2068.57039 2042.94188 2019.00713 2001.11146 1983.73045 1966.23864 1949.77608 1934.26170 1918.46763 1902.89228 1887.39424 1872.31611 1858.41652 1843.95076 1828.06306 1809.99793 1787.68739 1761.18421 1736.93301 1718.99631 1693.79668 1646.53548
  90.00000 2548.41765 2524.40378 2526.03211 2529.47548 2514.76096 2545.68995 2540.54340 2521.85604 2513.20156 2506.47803 2502.87798 2501.59135 2499.46006 2492.58306 2490.64086 2479.43891 2468.48001 2459.53265 2447.59649 2434.31274 2421.20166 2404.43934 2385.68594 2370.99052 2356.43250 2338.27557 2323.03334 2305.56305 2287.73701 2268.57584 2246.93853 2224.01845 2198.30070 2173.60173 2146.37616 2120.55096 2095.34870 2068.57039 2042.94188 2019.00713 2001.11146 1983.73045 1966.23864 1949.77608 1934.26170 1918.46763 1902.89228 1887.39424 1872.31611 1858.41652 1843.95076 1828.06306 1809.99793 1787.68739 1761.18421 1736.93301 1718.99631 1693.79668 1646.53548
  91.00000 2548.41765 2524.40378 2526.03211 2529.47548 2514.76096 2545.68995 2540.54340 2521.85604 2513.20156 2506.47803 2502.87798 2501.59135 2499.46006 2492.58306 2490.64086 2479.43891 2468.48001 2459.53265 2447.59649 2434.31274 2421.20166 2404.43934 2385.68594 2370.99052 2356.43250 2338.27557 2323.03334 2305.56305 2287.73701 2268.57584 2246.93853 2224.01845 2198.30070 2173.60173 2146.37616 2120.55096 2095.34870 2068.57039 2042.94188 2019.00713 2001.11146 1983.73045 1966.23864 1949.77608 1934.26170 1918.46763 1902.89228 1887.39424 1872.31611 1858.41652 1843.95076 1828.06306 1809.99793 1787.68739 1761.18421 1736.93301 1718.99631 1693.79668 1646.53548
  92.00000 2548.41765 2524.40378 2526.03211 2529.47548 2514.76096 2545.68995 2540.54340 2521.85604 2513.20156 2506.47803 2502.87798 2501.59135 2499.46006 2492.58306 2490.64086 2479.43891 2468.48001 2459.53265 2447.59649 2434.31274 2421.20166 2404.43934 2385.68594 2370.99052 2356.43250 2338.27557 2323.03334 2305.56305 2287.73701 2268.57584 2246.93853 2224.01845 2198.30070 2173.60173 2146.37616 2120.55096 2095.34870 2068.57039 2042.94188 2019.00713 2001.11146 1983.73045 1966.23864 1949.77608 1934.26170 1918.46763 1902.89228 1887.39424 1872.31611 1858.41652 1843.95076 1828.06306 1809.99793 1787.68739 1761.18421 1736.93301 1718.99631 1693.79668 1646.53548
  93.00000 2129.78044 2139.43750 2110.90169 2126.13669 2151.61231 2148.45584 2148.15907 2172.04612 2155.28508 2135.62619 2126.74551 2118.41113 2114.81818 2112.62983 2114.34937 2111.20566 2106.79316 2101.87091 2097.02572 2085.96410 2077.35449 2068.59118 2061.99541 2054.64059 2042.22531 2031.59851 2020.23371 2007.27266 1992.76875 1977.75398 1959.32590 1943.15787 1924.08362 1903.17125 1880.94638 1860.19328 1838.91859 1816.12463 1795.58398 1776.01706 1761.91593 1749.44296 1735.87557 1722.83665 1709.64896 1695.56951 1681.02646 1666.22166 1652.18624 1638.65612 1621.32613 1593.97409 1543.71596 1485.45660 1456.58657 1448.52828 1447.78828 1447.64150 1437.84071
  94.00000 1665.62438 1685.30023 1679.84360 1682.08997 1695.24444 1689.79635 1701.17603 1730.09855 1704.81932 1683.29667 1676.34124 1673.70534 1676.96611 1679.42905 1685.66639 1684.99397 1687.67625 1684.83164 1684.70332 1680.06817 1676.31820 1675.61536 1674.42704 1672.72605 1666.81225 1665.01109 1659.19349 1651.69336 1643.94269 1634.30114 1622.08990 1614.00182 1602.71920 1590.46163 1576.80317 1563.59974 1548.95527 1531.78100 1517.65505 1504.09669 1494.73259 1485.98756 1476.52657 1467.85306 1458.40157 1447.51495 1436.71671 1425.57353 1414.73429 1404.22341 1390.53551 1366.63028 1321.98856 1267.51123 1241.34051 1235.09950 1234.20237 1236.02354 1238.21571
  95.00000 1512.51634 1535.49702 1537.65336 1535.61527 1544.70544 1538.50143 1553.73273 1584.31628 1556.22720 1534.08977 1527.76941 1527.01323 1532.53479 1536.53203 1544.25961 1544.40239 1549.42497 1547.26570 1548.69330 1546.17801 1544.03106 1545.98707 1546.58246 1546.74647 1542.97727 1544.08736 1540.09958 1534.40080 1528.87778 1521.00865 1510.84813 1505.42533 1496.71288 1487.31021 1476.47749 1465.76443 1453.30703 1437.98647 1425.97651 1414.40015 1406.59862 1399.08329 1390.97686 1383.74334 1375.52428 1365.69086 1356.12790 1346.19255 1336.40762 1326.89267 1314.40615 1291.63791 1248.84884 1195.61905 1170.33874 1164.69718 1163.74822 1166.21855 1172.36675
  96.00000 1416.55463 1441.60665 1448.53447 1443.81106 1450.35389 1443.67611 1461.32145 1492.94606 1463.09589 1440.57314 1434.65080 1435.07275 1442.01128 1446.97015 1455.63177 1456.28547 1462.77486 1461.04513 1463.44791 1462.26126 1461.11901 1464.74148 1466.45484 1467.78774 1465.36269 1468.29743 1465.45650 1460.88674 1456.75992 1450.00167 1441.12644 1437.37413 1430.27256 1422.65922 1413.59756 1404.44535 1393.35871 1379.19999 1368.51623 1358.18211 1351.35994 1344.61534 1337.35789 1331.02689 1323.58026 1314.40695 1305.61820 1296.43987 1287.31573 1278.42500 1266.69146 1244.63583 1203.00792 1150.56005 1125.83781 1120.57196 1119.59051 1122.46770 1131.09539
  97.00000 1350.38423 1376.86454 1387.08254 1380.50747 1385.29379 1378.28931 1397.59925 1429.94172 1398.87719 1376.08874 1370.44087 1371.67520 1379.59080 1385.21276 1394.51844 1395.52445 1403.02527 1401.59174 1404.66696 1404.39647 1403.94701 1408.71859 1411.20283 1413.34175 1411.84356 1416.03649 1413.98637 1410.19512 1407.03104 1401.03880 1393.04986 1390.44943 1384.45864 1378.07913 1370.23871 1362.16278 1352.02135 1338.66378 1328.89450 1319.41696 1313.27011 1307.05696 1300.38492 1294.67626 1287.76227 1279.04412 1270.78925 1262.13292 1253.46443 1245.00412 1233.78980 1212.22555 1171.39832 1119.48961 1095.15219 1090.14541 1089.14156 1092.29931 1102.63671
  98.00000 1302.68000 1330.19000 1342.78000 1334.87000 1338.39000 1331.15000 1351.66000 1384.52000 1352.58000 1329.60000 1324.15000 1325.97000 1334.59000 1340.69000 1350.46000 1351.72000 1359.95000 1358.73000 1362.29000 1362.68000 1362.73000 1368.33000 1371.37000 1374.09000 1373.26000 1378.36000 1376.88000 1373.65000 1371.18000 1365.74000 1358.39000 1356.62000 1351.43000 1345.94000 1338.98000 1331.68000 1322.22000 1309.44000 1300.33000 1291.47000 1285.81000 1279.98000 1273.73000 1268.47000 1261.94000 1253.55000 1245.68000 1237.40000 1229.06000 1220.91000 1210.07000 1188.86000 1148.61000 1097.09000 1073.03000 1068.21000 1067.19000 1070.55000 1082.12000
  99.00000 1296.55020 1323.95415 1336.90469 1329.04499 1332.16970 1324.79242 1344.98717 1377.41710 1346.00394 1323.06599 1317.55272 1319.29334 1327.80323 1333.82470 1343.52660 1344.86255 1353.09032 1351.98628 1355.60563 1356.11483 1356.26985 1361.90941 1365.04343 1367.87875 1367.19141 1372.34116 1370.95768 1367.82187 1365.42339 1360.09161 1352.84698 1351.13952 1346.02283 1340.59373 1333.68287 1326.42194 1317.01515 1304.30396 1295.21096 1286.36709 1280.71308 1274.89057 1268.64172 1263.35761 1256.80718 1248.39101 1240.47173 1232.13570 1223.72955 1215.52417 1204.67744 1183.63193 1143.96028 1093.08243 1068.99601 1064.10536 1063.06643 1066.41330 1077.92574
 100.00000 1273.10130 1300.05427 1314.23944 1306.57773 1308.31054 1300.47966 1319.49140 1350.27433 1320.82908 1298.08792 1292.36131 1293.81834 1301.90983 1307.63138 1317.06438 1318.67080 1326.87559 1326.19880 1330.03151 1330.97993 1331.53066 1337.31413 1340.79490 1344.05504 1343.90157 1349.23939 1348.22135 1345.44805 1343.32492 1338.40614 1331.57278 1330.10745 1325.27961 1320.09507 1313.38601 1306.29182 1297.10247 1284.66854 1275.65899 1266.89356 1261.26937 1255.48076 1249.24147 1243.87304 1237.25235 1228.75132 1220.66455 1212.13638 1203.50082 1195.09815 1184.21967 1163.75443 1126.12605 1077.54203 1053.34654 1048.17458 1047.04407 1050.31957 1061.59183
 101.00000 1251.24989 1277.71667 1292.83811 1285.36901 1285.98276 1277.83382 1295.77739 1325.02477 1297.34275 1274.83823 1268.95542 1270.17827 1277.88493 1283.32862 1292.49960 1294.32901 1302.49153 1302.18885 1306.20025 1307.53313 1308.44339 1314.34999 1318.13467 1321.76632 1322.09234 1327.60192 1326.91854 1324.48607 1322.62205 1318.08640 1311.64810 1310.41244 1305.86586 1300.92593 1294.42484 1287.51104 1278.54420 1266.38870 1257.48346 1248.81508 1243.22851 1237.47883 1231.25576 1225.82005 1219.14509 1210.58673 1202.37390 1193.69827 1184.88246 1176.31637 1165.39949 1145.40430 1109.43481 1062.74792 1038.43981 1032.98936 1031.74442 1034.92093 1045.93851
 102.00000 1230.85400 1256.80832 1272.60845 1265.32637 1265.05755 1256.70537 1273.68347 1301.49939 1275.39837 1253.16328 1247.17370 1248.20578 1255.55903 1260.74618 1269.66338 1271.67524 1279.78004 1279.80482 1283.96488 1285.63393 1286.87109 1292.88263 1296.93328 1300.88923 1301.64590 1307.31236 1306.93569 1304.82376 1303.20376 1299.02382 1292.96455 1291.94661 1287.67303 1282.97604 1276.68657 1269.96311 1261.22126 1249.34302 1240.55831 1232.00130 1226.45831 1220.75114 1214.54943 1209.06075 1202.34474 1193.75163 1185.44711 1176.66104 1167.70574 1159.00440 1148.04366 1128.42503 1093.78712 1048.65275 1024.23067 1018.50549 1017.12634 1020.17950 1030.92964
 103.00000 1211.78454 1237.20773 1253.46512 1246.36429 1245.41719 1236.95845 1253.06294 1279.54450 1254.86233 1232.92335 1226.86961 1227.74906 1234.77829 1239.72932 1248.40206 1250.56194 1258.59686 1258.90823 1263.19102 1265.15369 1266.68832 1272.78890 1277.07199 1281.31047 1282.45395 1288.26369 1288.16834 1286.35800 1284.96799 1281.11856 1275.42255 1274.61092 1270.60160 1266.14442 1260.06807 1253.54177 1245.02517 1233.42106 1224.76920 1216.33423 1210.83922 1205.17691 1199.00041 1193.47070 1186.72450 1178.11502 1169.74714 1160.88107 1151.81989 1143.00661 1131.99757 1112.67644 1079.09241 1035.21227 1010.67678 1004.68144 1003.15111 1006.05947 1016.53104
 104.00000 1193.92409 1218.80400 1235.32916 1228.40373 1226.95408 1218.46965 1233.78266 1259.02043 1235.61286 1213.99135 1207.91010 1208.67036 1215.40300 1220.13749 1228.57588 1230.85465 1238.81037 1239.37256 1243.75576 1245.97462 1247.78018 1253.95596 1258.44186 1262.92598 1264.41693 1270.35754 1270.52046 1268.99396 1267.82092 1264.27886 1258.93068 1258.31442 1254.56025 1250.33860 1244.47503 1238.15005 1229.85713 1218.52247 1210.01243 1201.70706 1196.26312 1190.64701 1184.49850 1178.93766 1172.17010 1163.55903 1155.15093 1146.22972 1137.09017 1128.18413 1117.12323 1098.03297 1065.26812 1022.38508  997.73845  991.47819  989.78222  992.52704 1002.71040
 105.00000 1177.16589 1201.49583 1218.12749 1211.37154 1209.56986 1201.12684 1215.72181 1239.80020 1217.53897 1196.25171 1190.17433 1190.84469 1197.30633 1201.84296 1210.05768 1212.43086 1220.30048 1221.08225 1225.54671 1227.98888 1230.04145 1236.28038 1240.94299 1245.64019 1247.44331 1253.50347 1253.90371 1252.64449 1251.67630 1248.42034 1243.40491 1242.97364 1239.46526 1235.47386 1229.82124 1223.69947 1215.62718 1204.55598 1196.19391 1188.02311 1182.63222 1177.06282 1170.94417 1165.36034 1158.57851 1149.97757 1141.54799 1132.59176 1123.39617 1114.41302 1103.29747 1084.38214 1052.23907 1010.13249  985.37841  978.85908  976.98532  979.55031  989.43717
 106.00000 1161.41284 1185.19076 1201.79252 1195.20012 1193.17459 1184.82817 1198.77074 1221.76835 1200.53947 1179.59931 1173.55256 1174.15862 1180.37314 1184.72966 1192.73177 1195.17890 1202.95759 1203.93170 1208.46107 1211.09774 1213.37571 1219.66737 1224.48368 1229.36530 1231.44895 1237.61831 1238.23688 1237.22943 1236.45484 1233.46545 1228.76810 1228.51190 1225.23981 1221.47264 1216.02788 1210.10930 1202.25335 1191.43865 1183.22831 1175.19486 1169.85807 1164.33520 1158.24752 1152.64735 1145.85688 1137.27520 1128.83913 1119.86396 1110.63027 1101.58272 1090.41035 1071.62319 1039.93675  998.41833  973.56175  966.78969  964.72804  967.09915  976.68245
 107.00000 1146.57664 1169.80433 1186.26169 1179.82692 1177.68610 1169.48107 1182.82993 1204.81997 1184.52215 1163.93853 1157.94517 1158.50926 1164.49887 1168.69214 1176.49293 1178.99705 1186.68173 1187.82448 1192.40486 1195.21079 1197.69471 1204.03006 1208.97986 1214.02068 1216.35652 1222.62565 1223.44526 1222.67510 1222.08365 1219.34286 1214.94939 1214.85882 1211.81347 1208.26389 1203.02285 1197.30588 1189.66099 1179.09505 1171.03820 1163.14307 1157.86070 1152.38361 1146.32740 1140.71624 1133.92152 1125.36603 1116.93529 1107.95385 1098.69631 1089.59456 1078.36375 1059.66587 1028.29872  987.20875  962.25570  955.23764  952.97989  955.14509  964.41894
 108.00000 1132.57698 1155.25941 1171.47711 1165.19412 1163.02923 1155.00147 1167.80909 1188.85964 1169.40297 1149.18243 1143.26165 1143.80323 1149.58860 1153.63458 1161.24540 1163.79258 1171.38164 1172.67247 1177.29210 1180.24524 1182.91756 1189.28882 1194.35438 1199.53228 1202.09492 1208.45519 1209.46017 1208.91377 1208.49571 1205.98702 1201.88366 1201.94977 1199.12162 1195.78252 1190.74027 1185.22201 1177.78214 1167.45663 1159.55337 1151.79604 1146.56775 1141.13527 1135.11050 1129.49261 1122.69698 1114.17278 1105.75649 1096.77861 1087.50834 1078.36049 1067.07008 1048.42932 1017.26811  976.47213  951.42951  944.17254  941.71216  943.66130  952.62080
 109.00000 1119.34082 1141.48561 1157.38524 1151.24823 1149.13530 1141.31298 1153.62624 1173.80063 1155.10528 1135.25191 1129.41982 1129.95579 1135.55614 1139.46991 1146.90208 1149.48102 1156.97409 1158.39518 1163.04417 1166.12531 1168.97020 1175.37070 1180.53647 1185.83206 1188.59878 1195.04232 1196.21843 1195.88313 1195.62943 1193.33766 1189.51113 1189.72541 1187.10500 1183.96894 1179.11986 1173.79634 1166.55485 1156.46104 1148.71011 1141.08884 1135.91380 1130.52438 1124.53063 1118.90935 1112.11525 1103.62590 1095.23094 1086.26401 1076.98955 1067.80193 1056.45116 1037.84111 1006.79310  966.17889  941.05437  933.56584  930.89780  932.62238  941.26362
 110.00000 1106.80173 1128.41859 1143.93649 1137.93978 1135.94152 1128.34618 1140.20699 1159.56411 1141.55925 1122.07503 1116.34506 1116.89006 1122.32322 1126.11901 1133.38374 1135.98536 1143.38311 1144.91905 1149.58918 1152.78157 1155.78478 1162.20882 1167.46120 1172.85754 1175.80802 1182.32764 1183.66195 1183.52593 1183.42816 1181.33937 1177.77688 1178.13125 1175.70926 1172.76856 1168.10653 1162.97293 1155.92273 1146.05161 1138.45064 1130.96270 1125.83967 1120.49151 1114.52800 1108.90589 1102.11502 1093.66281 1085.29417 1076.34360 1067.07129 1057.84877 1046.43720 1027.83634  996.82648  956.30138  931.10324  923.39070  920.51133  922.00441  930.32431
 111.00000 1094.89931 1115.99965 1131.08502 1125.22303 1123.39048 1116.03801 1127.48383 1146.07837 1128.70120 1109.58634 1103.96957 1104.53628 1109.81880 1113.50998 1120.61826 1123.23545 1130.53937 1132.17691 1136.86135 1140.15050 1143.29916 1149.74188 1155.06903 1160.55133 1163.66741 1170.25654 1171.73730 1171.78952 1171.83985 1169.94118 1166.63045 1167.11726 1164.88453 1162.13138 1157.64989 1152.70071 1145.83439 1136.17683 1128.72252 1121.36440 1116.29183 1110.98291 1105.04862 1099.42757 1092.64104 1084.22719 1075.88828 1066.95781 1057.69220 1048.43844 1036.96590 1018.35690  987.32520  946.81372  921.55076  913.62191  910.52876  911.78475  919.78103
 112.00000 1083.57860 1104.17515 1118.78838 1113.05567 1111.42969 1104.33117 1115.39548 1133.27825 1116.47310 1097.72633 1092.23181 1092.83111 1097.97836 1101.57749 1108.54007 1111.16734 1118.37963 1120.10739 1124.80056 1128.17389 1131.45642 1137.91370 1143.30530 1148.86072 1152.12616 1158.77880 1160.39535 1160.62547 1160.81660 1159.09627 1156.02550 1156.63750 1154.58509 1152.01161 1147.70388 1142.93308 1136.24306 1126.78984 1119.47822 1112.24579 1107.22188 1101.95004 1096.04374 1090.42508 1083.64347 1075.26835 1066.96129 1058.05329 1048.79745 1039.51510 1027.98166 1009.35069  978.25007  937.69174  912.37313  904.23579  900.92748  901.94205  909.61315
 113.00000 1072.78963 1092.89611 1107.00730 1101.39856 1100.01119 1093.17358 1103.88630 1121.10450 1104.82203 1086.44086 1081.07587 1081.71712 1086.74329 1090.26216 1097.08946 1099.72276 1106.84617 1108.65439 1113.35179 1116.79847 1120.20441 1126.67281 1132.11989 1137.73727 1141.13758 1147.84825 1149.59089 1149.98928 1150.31443 1148.76157 1145.91945 1146.64980 1144.76900 1142.36729 1138.22636 1133.62753 1127.10609 1117.84805 1110.67457 1103.56326 1098.58601 1093.34901 1087.46932 1081.85392 1075.07742 1066.74069 1058.46654 1049.58225 1040.33801 1031.02891 1019.43483 1000.77106  969.56537  928.91282  903.54804  895.21009  891.68621  892.45615  899.80114
 114.00000 1062.48693 1082.11780 1095.70543 1090.21552 1089.09109 1082.51793 1092.90581 1109.50323 1093.69976 1075.68067 1070.45095 1071.14216 1076.06042 1079.51006 1086.21216 1088.84861 1095.88630 1097.76669 1102.46474 1105.97544 1109.49536 1115.97199 1121.46682 1127.13651 1130.65877 1137.42246 1139.28239 1139.84002 1140.29287 1138.89747 1136.27320 1137.11542 1135.39776 1133.16000 1129.17883 1124.74525 1118.38467 1109.31274 1102.27245 1095.27733 1090.34463 1085.14016 1079.28559 1073.67394 1066.90240 1058.60315 1050.36210 1041.50185 1032.27009 1022.93540 1011.28110  992.57620  961.23852  920.45582  895.05456  886.52390  882.78489  883.30801  890.32655
 115.00000 1052.62916 1071.79937 1084.84913 1079.47305 1078.62929 1072.32123 1082.40819 1098.42545 1083.06231 1065.40096 1060.31096 1061.05891 1065.88142 1069.27213 1075.85874 1078.49648 1085.45198 1087.39747 1092.09340 1095.66012 1099.28553 1105.76801 1111.30388 1117.01757 1120.65025 1127.46238 1129.43160 1130.14006 1130.71471 1129.46758 1127.05084 1127.99879 1126.43610 1124.35456 1120.52604 1116.25084 1110.04343 1101.14870 1094.23634 1087.35226 1082.46191 1077.28763 1071.45662 1065.84892 1059.08190 1050.81881 1042.61034 1033.77375 1024.55451 1015.19486 1003.48089  984.72866  953.23987  912.30096  886.87305  878.15757  874.20463  874.47963  881.17192
 116.00000 1043.17869 1061.90350 1074.40728 1069.14019 1068.58911 1062.54440 1072.35182 1087.82662 1072.86958 1055.56097 1050.61398 1051.42442 1056.16243 1059.50384 1065.98426 1068.62226 1075.49932 1077.50398 1082.19568 1085.81160 1089.53484 1096.02120 1101.59236 1107.34293 1111.07575 1117.93214 1120.00338 1120.85479 1121.54576 1120.43842 1118.21935 1119.26726 1117.85163 1115.91872 1112.23580 1108.11200 1102.05015 1093.32392 1086.53403 1079.75569 1074.90543 1069.75903 1063.94997 1058.34614 1051.58301 1043.35440 1035.17746 1026.36354 1017.15629 1007.77188  995.99890  977.19488  945.54238  904.42975  878.98510  870.09265  865.92762  865.95405  872.32074
 117.00000 1034.10133 1052.39611 1064.35107 1059.18830 1058.93703 1053.15195 1062.69894 1077.66624 1063.08502 1046.12363 1041.32198 1042.19973 1046.86362 1050.16468 1056.54782 1059.18575 1065.98830 1068.04712 1072.73310 1076.39241 1080.20657 1086.69523 1092.29676 1098.07810 1101.90192 1108.79875 1110.96540 1111.95240 1112.75457 1111.77920 1109.74842 1110.89083 1109.61465 1107.82297 1104.27864 1100.29923 1094.37548 1085.80929 1079.13629 1072.45833 1067.64589 1062.52506 1056.73634 1051.13610 1044.37608 1036.18001 1028.03310 1019.24045 1010.04412 1000.63483  988.80357  969.94477  938.12140  896.82490  871.37342  862.31179  857.93712  857.71523  863.75742
 118.00000 1025.36593 1043.24607 1054.65383 1049.59089 1049.64237 1044.11158 1053.41526 1067.90748 1053.67530 1037.05519 1032.40038 1033.34946 1037.94879 1041.21784 1047.51219 1050.15031 1056.88239 1058.99120 1063.67043 1067.36824 1071.26707 1077.75679 1083.38449 1089.19142 1093.09809 1100.03185 1102.28790 1103.40362 1104.31222 1103.46164 1101.61020 1102.84196 1101.69793 1100.04024 1096.62763 1092.78563 1086.99268 1078.57834 1072.01661 1065.43364 1060.65676 1055.55926 1049.78925 1044.19217 1037.43435 1029.26870 1021.15000 1012.37686 1003.19003  993.75547  981.86674  962.95139  930.95448  889.47024  864.02182  854.79870  850.21733  849.74803  855.46718
 119.00000 1016.94418 1034.42494 1045.29088 1040.32343 1040.67711 1035.39398 1044.46966 1058.51682 1044.61002 1028.32496 1023.81779 1024.84149 1029.38510 1032.62989 1038.84350 1041.48254 1048.14825 1050.30360 1054.97547 1058.70766 1062.68555 1069.17534 1074.82563 1080.65377 1084.63608 1091.60356 1093.94356 1095.18155 1096.19213 1095.45971 1093.77911 1095.09537 1094.07648 1092.54577 1089.25814 1085.54664 1079.87741 1071.60701 1065.15092 1058.65762 1053.91406 1048.83769 1043.08480 1037.49032 1030.73371 1022.59623 1014.50367 1005.74804  996.56902  987.10862  975.16328  956.19058  924.02114  882.35063  856.91508  847.53808  842.75338  842.03814  847.43608
 120.00000 1008.81032 1025.90676 1036.23938 1031.36326 1032.01559 1026.97249 1035.83387 1049.46382 1035.86148 1019.90503 1015.54568 1016.64670 1021.14270 1024.37040 1030.51093 1033.15200 1039.75544 1041.95449 1046.61878 1050.38191 1054.43376 1060.92290 1066.59278 1072.43844 1076.48994 1083.48823 1085.90719 1087.26146 1088.36986 1087.74948 1086.23164 1087.62782 1086.72735 1085.31685 1082.14763 1078.55985 1073.00747 1064.87340 1058.51739 1052.10851 1047.39607 1042.33872 1036.60139 1031.00886 1024.25240 1016.14078 1008.07213  999.33184  990.15872  980.67177  968.67072  949.64071  917.30273  875.45194  850.03894  840.51552  835.53125  834.57206  839.65091
 121.00000 1000.94090 1017.66777 1027.47818 1022.68940 1023.63436 1018.82288 1027.48222 1040.72076 1027.40439 1011.76997 1007.55814 1008.73861 1013.19448 1016.41175 1022.48645 1025.13094 1031.67619 1033.91665 1038.57339 1042.36462 1046.48586 1052.97379 1058.66074 1064.52087 1068.63586 1075.66226 1078.15567 1079.62059 1080.82293 1080.30895 1078.94620 1080.41799 1079.62954 1078.33269 1075.27551 1071.80480 1066.36266 1058.35761 1052.09622 1045.76662 1041.08317 1036.04280 1030.31950 1024.72821 1017.97083 1009.88270 1001.83562  993.10838  983.93915  974.42483  962.36902  943.28236  910.78223  868.76093  843.38002  833.71751  828.53774  827.33703  832.09920
 122.00000  993.31459 1009.68632 1018.98771 1014.28244 1015.51199 1010.92311 1019.39142 1032.26244 1019.21572 1003.89666  999.83162 1001.09322 1005.51584 1008.72882 1014.74451 1017.39406 1023.88515 1026.16518 1030.81465 1034.63166 1038.81813 1045.30451 1051.00643 1056.87849 1061.05191 1068.10397 1070.66770 1072.23801 1073.53067 1073.11788 1071.90295 1073.44628 1072.76373 1071.57425 1068.62292 1065.26283 1059.92454 1052.04155 1045.86942 1039.61412 1034.95759 1029.93225 1024.22151 1018.63069 1011.87129 1003.80431  995.77640  987.05986  977.89244  968.34989  956.24026  937.09815  904.44415  862.26523  836.92577  827.13136  821.76042  820.32102  824.76913
 123.00000  985.91200 1001.94259 1010.74985 1006.12442 1007.62884 1003.25316 1011.54030 1024.06594 1011.27443  996.26407  992.34473  993.68873  998.08439 1001.29877 1007.26189 1009.91830 1016.35918 1018.67732 1023.32003 1027.16092 1031.40887 1037.89348 1043.60864 1049.49057 1053.71793 1060.79340 1063.42371 1065.09449 1066.47408 1066.15768 1065.08365 1066.69472 1066.11223 1065.02407 1062.17264 1058.91690 1053.67635 1045.90875 1039.82070 1033.63486 1029.00325 1023.99109 1018.29149 1012.70036 1005.93786  997.88969  989.87852  981.17034  972.00258  962.43093  950.26845  931.07249  898.27435  855.95327  830.66441  820.74512  815.18758  813.51265  817.64955
 124.00000  978.71544  994.41847 1002.74782  998.19873  999.96697  995.79483 1003.90964 1016.11041 1003.56137  988.85304  985.07803  986.50534  990.87984  994.10084 1000.01745 1002.68265 1009.07716 1011.43229 1016.06887 1019.93215 1024.23819 1030.72093 1036.44793 1042.33807 1046.61541 1053.71222 1056.40568 1058.17233 1059.63567 1059.41122 1058.47157 1060.14676 1059.65880 1058.66616 1055.90890 1052.75145 1047.60279 1039.94425 1033.93524 1027.81422 1023.20562 1018.20487 1012.51506 1006.92281 1000.15614  992.12451  984.12767  975.42551  966.25531  956.65364  944.43930  925.19141  892.25994  849.81423  824.58489  814.54757  808.80817  806.90118  810.72989
 125.00000  971.70886  987.09744  994.96611  990.48999  992.50998  988.53155  996.48199 1008.37687  996.05904  981.64615  978.01386  979.52508  983.88372  987.11617  992.99194  995.66794 1002.01981 1004.41110 1009.04232 1012.92680 1017.28786 1023.76875 1029.50646 1035.40349 1039.72728 1046.84355 1049.59704 1051.45526 1052.99939 1052.86277 1052.05130 1053.78725 1053.38852 1052.48588 1049.81728 1046.75229 1041.68994 1034.13443 1028.19962 1022.13895 1017.55153 1012.56051 1006.87922 1001.28505  994.51316  986.49585  978.51098  969.81254  960.63781  951.00527  938.74003  919.44236  886.38917  843.83797  818.67685  808.52817  802.61179  800.47646  804.00018
 126.00000  964.87761  979.96438  987.39031  982.98398  985.24283  981.44828  989.24149 1000.84807  988.75148  974.62752  971.13617  972.73164  977.07928  980.32759  986.16785  988.85670  995.16952  997.59637 1002.22309 1006.12788 1010.54119 1017.02031 1022.76783 1028.67076 1033.03789 1040.17187 1042.98255 1044.92831 1046.55044 1046.49786 1045.80872 1047.60223 1047.28774 1046.46980 1043.88459 1040.90645 1035.92510 1028.46690 1022.60164 1016.59706 1012.02908 1007.04622 1001.37222  995.77534  988.99723  980.99210  973.01689  964.31994  955.13867  945.47439  933.15925  913.81413  880.65132  838.01504  812.93056  802.67703  796.58866  794.22890  797.45096
 127.00000  958.20839  973.00547  980.00713  975.66753  978.15180  974.53133  982.17374  993.50829  981.62415  967.78272  964.43037  966.11019  970.45126  973.71949  979.52922  982.23300  988.51023  990.97223  995.59539  999.51983 1003.98286 1010.46038 1016.21702 1022.12509 1026.53281 1033.68292 1036.54819 1038.57771 1040.27524 1040.30318 1039.73082 1041.57891 1041.34391 1040.60562 1038.09877 1035.20211 1030.29669 1022.93040 1017.13023 1011.17767 1006.62748 1001.65129  995.98344  990.38309  983.59779  975.60278  967.63501  958.93741  949.74764  940.05083  927.68676  908.29662  875.03663  832.33656  807.33689  796.98482  790.72954  788.14946  791.07330
 128.00000  951.68906  966.20809  972.80424  968.52846  971.22430  967.76824  975.26564  986.34325  974.66376  961.09860  957.88320  959.64729  963.98584  967.27771  973.06154  975.78230  982.02727  984.52418  989.14476  993.08839  997.59884 1004.07497 1009.84023 1015.75291 1020.19879 1027.36356 1030.28104 1032.39079 1034.16128 1034.26649 1033.80567 1035.70552 1035.54550 1034.88208 1032.44878 1029.62847 1024.79419 1017.51469 1011.77535 1005.87095 1001.33698  996.36608  990.70328  985.09872  978.30532  970.31848  962.35601  953.65570  944.45558  934.72549  922.31345  902.88079  869.53617  826.79426  801.88728  791.44280  785.02574  782.22959  784.85875
 129.00000  945.30858  959.56070  965.77021  961.55548  964.44883  961.14769  968.50531  979.33995  967.85819  954.56320  951.48259  953.33069  957.67043  960.98932  966.75160  969.49137  975.70724  978.23895  982.85796  986.82049  991.37630  997.85129 1003.62480 1009.54174 1014.02365 1021.20173 1024.16925 1026.35591 1028.19707 1028.37653 1028.02229 1029.97126 1029.88196 1029.28885 1026.92452 1024.17566 1019.40798 1012.21043 1006.52788 1000.66798  996.14876  991.18184  985.52309  979.91358  973.11122  965.13070  957.17148  948.46652  939.25430  929.49022  917.03118  897.55855  864.14183  821.38038  796.57370  786.04275  779.46906  776.46121  778.79932
 130.00000  939.05691  953.05275  958.89447  954.73816  957.81486  954.65938  961.88194  972.48653  961.19639  948.16560  945.21759  947.14932  951.49359  954.84260  960.58736  963.34812  969.53791  972.10441  976.72290  980.70417  985.30343  991.77758  997.55910 1003.48012 1007.99616 1015.18631 1018.20188 1020.46235 1022.37202 1022.62293 1022.37059 1024.36621 1024.34360 1023.81646 1021.51676 1018.83469 1014.12930 1007.00916 1001.37955  995.56067  991.05481  986.09066  980.43501  974.81989  968.00774  960.03180  952.07389  943.36245  934.13645  924.33775  911.83267  892.32261  858.84618  816.08766  791.38861  780.77693  774.05178  770.83670  772.88746
 131.00000  932.92489  946.67460  952.16724  948.06684  951.31276  948.29392  955.38570  965.77222  954.66826  941.89588  939.07825  941.09307  945.44494  948.82689  954.55786  957.34153  963.50810  966.10949  970.72848  974.72847  979.36946  985.84307  991.63245  997.55750 1002.10601 1009.30710 1012.36888 1014.70025 1016.67641 1016.99618 1016.84132 1018.88124 1018.92151 1018.45625 1016.21704 1013.59732 1008.95017 1001.90314  996.32283  990.54171  986.04790  981.08540  975.43197  969.81058  962.98789  955.01487  947.05646  938.33680  929.09549  919.26159  906.71140  887.16644  853.64245  810.90932  786.32493  775.63810  768.76663  765.34884  767.11600
 132.00000  926.90419  940.41742  945.57944  941.53256  944.93369  942.04278  949.00767  959.18720  948.26459  935.74501  933.05548  935.15278  939.51504  942.93246  948.65312  951.46156  957.60762  960.24405  964.86457  968.88333  973.56447  980.03787  985.83507  991.76421  996.34371 1003.55469 1006.66101 1009.06055 1011.10129 1011.48750 1011.42595 1013.50798 1013.60752 1013.20026 1011.01762 1008.45606 1003.86332  996.88536  991.35091  985.60446  981.12149  976.15959  970.50755  964.87929  958.04536  950.07372  942.11309  933.38359  924.12553  914.25594  901.66155  882.08418  848.52447  805.83901  781.37603  770.61941  763.60675  759.99085  761.47819
 133.00000  920.98720  934.27314  939.12267  935.12705  938.66958  935.89820  942.73972  952.72255  941.97696  929.70474  927.14106  929.32014  933.69528  937.15049  942.86405  945.69903  951.82716  954.49883  959.12189  963.15954  967.87939  974.35292  980.15796  986.09133  990.70053  997.92043 1001.06975 1003.53490 1005.63842 1006.08883 1006.11665 1008.23872 1008.39415 1008.04121 1005.91144 1003.40404  998.86211  991.94943  986.45758  980.74292  976.26963  971.30736  965.65596  960.02027  953.17444  945.20274  937.23828  928.49746  919.22132  909.31558  896.67792  877.07056  843.48661  800.87078  776.53567  765.71445  758.56568  754.75628  755.96763
 134.00000  915.16702  928.23439  932.78913  928.84263  932.51304  929.85311  936.57447  946.37012  935.79770  923.76758  921.32748  923.58756  927.97787  931.47294  937.18238  940.04559  946.15819  948.86533  953.49193  957.54867  962.30591  968.77991  974.59287  980.53069  985.16844  992.39637  995.58727  998.11562 1000.28024 1000.79276 1000.90622 1003.06640 1003.27451 1002.97241 1000.89202  998.43501  993.94048  987.08953  981.63722  975.95162  971.48696  966.52343  960.87196  955.22831  948.36999  940.39688  932.42711  923.67358  914.37814  904.43588  891.75585  872.12086  838.52372  795.99909  771.79802  760.91719  753.63734  749.63907  750.57826
 135.00000  909.43732  922.29441  926.57163  922.67220  926.45728  923.90107  930.50521  940.12249  929.71979  917.92667  915.60793  917.94817  922.35570  925.89250  931.60055  934.49359  940.59294  943.33583  947.96691  952.04298  956.83640  963.31120  969.13220  975.07476  979.74006  986.97519  990.20636  992.79564  995.01976  995.59245  995.78805  997.98452  998.24229  997.98775  995.95341  993.54324  989.09294  982.30036  976.88471  971.22564  966.76861  961.80300  956.15082  950.49871  943.62735  935.65161  927.67513  918.90762  909.59176  899.61267  886.89115  867.23084  833.63111  791.21873  767.15758  756.22196  748.81599  744.63347  745.30435
 136.00000  903.79237  916.44704  920.46347  916.60919  920.49609  918.03622  924.52582  933.97292  923.73682  912.17580  909.97619  912.39572  916.82231  920.40251  926.11171  929.03609  935.12431  937.90322  942.53972  946.63539  951.46387  957.93980  963.76901  969.71661  974.40858  981.65014  984.92038  987.56847  989.85059  990.48163  990.75605  992.98710  993.29168  993.08161  991.09021  988.72351  984.31444  977.57712  972.19541  966.56049  962.11017  957.14172  951.48824  945.82723  938.94234  930.96282  922.97836  914.19570  904.85842  894.84223  882.08009  862.39667  828.80447  786.52482  762.60920  751.62343  744.09623  739.73406  740.14049
 137.00000  898.22693  910.68660  914.45846  910.64749  914.62380  912.25321  918.63075  927.91524  917.84293  906.50928  904.42662  906.92452  911.37182  914.99692  920.70958  923.66671  929.74582  932.56102  937.20382  941.31938  946.18190  952.65929  958.49689  964.44989  969.16774  976.41503  979.72321  982.42812  984.76680  985.45451  985.80463  988.06865  988.41736  988.24885  986.29743  983.97104  979.60040  972.91540  967.56511  961.95211  957.50765  952.53567  946.88035  941.21003  934.31116  926.32681  918.33318  909.53431  900.17470  890.12123  877.31933  857.61493  824.03991  781.91281  758.14804  747.11659  739.47296  734.93574  735.08154
 138.00000  892.73621  905.00794  908.55086  904.78146  908.83519  906.54719  912.81493  921.94385  912.03278  900.92193  898.95408  901.52939  905.99889  909.67021  915.38846  918.37967  924.45151  927.30330  931.95325  936.08900  940.98460  947.46377  953.30997  959.26876  964.01178  971.26415  974.60924  977.36909  979.76299  980.50577  980.92864  983.22412  983.61444  983.48474  981.57054  979.28148  974.94664  968.31121  962.98996  957.39681  952.95742  947.98128  942.32364  936.64362  929.73038  921.74024  913.73638  904.92033  895.53758  885.44668  872.60587  852.88252  819.33383  777.37844  753.76959  742.69672  734.94138  730.23364  730.12266
 139.00000  887.31586  899.40632  902.73535  899.00587  903.12548  900.91370  907.07375  916.05362  906.30147  895.40902  893.55387  896.20564  900.69865  904.41735  910.14315  913.16966  919.23599  922.12463  926.78253  930.93879  935.86660  942.34784  948.20285  954.16782  958.93542  966.19225  969.57329  972.38629  974.83414  975.63052  976.12335  978.44888  978.87843  978.78496  976.90537  974.65084  970.34933  963.76092  958.46647  952.89126  948.45621  943.47533  937.81491  932.12488  925.19692  917.20009  909.18502  900.35093  890.94431  880.81591  867.93700  848.19669  814.68298  772.91771  749.46956  738.35941  730.49695  725.62321  725.25925
 140.00000  881.96190  893.87738  897.00698  893.31587  897.49029  895.34872  901.40302  910.23989  900.64453  889.96624  888.22175  890.94898  895.46667  899.23377  904.96890  908.03186  914.09428  917.02004  921.68665  925.86374  930.82292  937.30653  943.17058  949.14213  953.93375  961.19449  964.61058  967.47508  969.97565  970.82425  971.38441  973.73865  974.20521  974.14553  972.29810  970.07547  965.80499  959.26121  953.99149  948.43242  944.00103  939.01491  933.35131  927.65095  920.70796  912.70366  904.67647  895.82357  886.39246  876.22651  863.31033  843.55491  810.08435  768.52689  745.24396  734.10048  726.13543  721.10013  720.48698
 141.00000  876.67070  888.41717  891.36118  887.70698  891.92561  889.84854  895.79891  904.49839  895.05788  884.58966  882.95381  885.75551  890.29892  894.11531  899.86139  902.96183  909.02186  911.98499  916.66102  920.85924  925.84904  932.33529  938.20861  944.18714  949.00231  956.26641  959.71672  962.63114  965.18329  966.08280  966.70783  969.08952  969.59099  969.56281  967.74525  965.55204  961.31045  954.80905  949.56214  944.01754  939.58920  934.59735  928.93021  923.21927  916.26097  908.24848  900.20838  891.33598  881.87981  871.67634  858.72369  838.95495  805.53521  764.20247  741.08905  729.91602  721.85278  716.66030  715.80173
 142.00000  871.43895  883.02203  885.79372  882.17501  886.42775  884.40981  890.25794  898.82526  889.53776  879.27569  877.74652  880.62168  885.19172  889.05816  894.81667  897.95555  904.01457  907.01530  911.70143  915.92108  920.94079  927.42993  933.31275  939.29867  944.13694  951.40393  954.88767  957.85052  960.45316  961.40235  962.08991  964.49788  965.03229  965.03346  963.24360  961.07750  956.86280  950.40170  945.17578  939.64412  935.21826  930.22027  924.54927  918.82750  911.85368  903.83234  895.77860  886.88608  877.40440  867.16345  854.17513  834.39478  801.03307  759.94119  737.00129  725.80234  717.64522  712.29988  711.19961
 143.00000  866.26362  877.68864  880.30064  876.71611  880.99333  879.02946  884.77692  893.21693  884.08077  874.02106  872.59665  875.54426  880.14173  884.05886  889.83114  893.00933  899.06864  902.10717  906.80402  911.04539  916.09433  922.58661  928.47916  934.47285  939.33383  946.60325  950.11969  953.12958  955.78166  956.77940  957.52727  959.96041  960.52590  960.55442  958.79024  956.64908  952.45938  946.03664  940.83003  935.30990  930.88599  925.88149  920.20633  914.47354  907.48399  899.45323  891.38521  882.47205  872.96445  862.68613  849.66290  829.87257  796.57564  755.73997  732.97738  721.75600  713.50917  708.01522  706.67694
 144.00000  861.14195  872.41392  874.87830  871.32670  875.61925  873.70466  879.35295  887.67016  878.68375  868.82275  867.50126  870.52031  875.14588  879.11425  884.90151  888.11981  894.18059  897.25710  901.96525  906.22862  911.30617  917.80180  923.70429  929.70615  934.58949  941.86091  945.40937  948.46496  951.16549  952.21068  953.01680  955.47406  956.06889  956.12287  954.38247  952.26423  948.09779  941.71159  936.52274  931.01280  926.59038  921.57902  915.89946  910.15546  903.15004  895.10933  887.02645  878.09220  868.55835  858.24280  845.18543  825.38666  792.16081  751.59594  729.01421  717.77372  709.44126  703.80287  702.23023
 145.00000  856.07140  867.19506  869.52330  866.00346  870.30265  868.43287  873.98339  882.18200  873.34385  863.67805  862.45765  865.54714  870.20141  874.22147  880.02479  883.28390  889.34724  892.46191  897.18189  901.46752  906.57307  913.07226  918.98489  924.99529  929.90068  937.17369  940.75352  943.85356  946.60160  947.69323  948.55562  951.03602  951.65857  951.73622  950.01783  947.92060  943.77580  937.42446  932.25191  926.75096  922.32959  917.31109  911.62689  905.87155  898.85013  890.79902  882.70078  873.74503  864.18467  853.83207  840.74131  820.93557  787.78669  747.50640  725.10886  713.85244  705.43831  699.65957  697.85618
 146.00000  851.04967  862.02951  864.23251  860.74329  865.04091  863.21175  868.66583  876.74973  868.05842  858.58444  857.46338  860.62231  865.30578  869.37786  875.19824  878.49879  884.56570  887.71864  892.45096  896.75908  901.89208  908.39501  914.31799  920.33728  925.26442  932.53865  936.14924  939.29255  942.08719  943.22429  944.14109  946.64371  947.29244  947.39211  945.69406  943.61608  939.49141  933.17335  928.01576  922.52268  918.10197  913.07605  907.38703  901.62023  894.58271  886.52079  878.40675  869.42918  859.84210  849.45267  836.32926  816.51796  783.45150  743.46885  721.25859  709.98930  701.49734  695.58225  693.55168
 147.00000  846.07465  856.91488  859.00298  855.54335  859.83164  858.03913  863.39804  871.37089  862.82506  853.53963  852.51621  855.74358  860.45666  864.58105  870.41935  873.76190  879.83330  883.02463  887.76973  892.10056  897.26048  903.76731  909.70082  915.72934  920.67797  927.95306  931.59383  934.77928  937.61966  938.80132  939.77079  942.29475  942.96822  943.08835  941.40909  939.34870  935.24276  928.95652  923.81265  918.32640  913.90600  908.87244  903.17843  897.40006  890.34639  882.27332  874.14310  865.14344  855.52949  845.10345  831.94814  812.13259  779.15364  739.48091  717.46083  706.18157  697.61551  691.56800  689.31376
 148.00000  841.14439  851.84901  853.83202  850.40098  854.67261  852.91308  858.17802  866.04320  857.64156  848.54154  847.61408  850.90891  855.65196  859.82884  865.68584  869.07088  875.14760  878.37741  883.13571  887.48944  892.67576  899.18666  905.13086  911.16893  916.13880  923.41443  927.08483  930.31135  933.19663  934.42198  935.44246  937.98695  938.68381  938.82295  937.16103  935.11669  931.02816  924.77238  919.64108  914.16073  909.74030  904.69892  898.99978  893.20977  886.13990  878.05537  869.90865  860.88669  851.24577  840.78341  827.59689  807.77837  774.89163  735.54038  713.71316  702.42670  693.79017  687.61407  685.13963
 149.00000  836.25713  846.82989  848.71711  845.31370  849.56180  847.83179  853.00391  860.76460  852.50589  843.58824  842.75514  846.11645  850.88972  855.11923  860.99561  864.42356  870.50638  873.77471  878.54658  882.92340  888.13563  894.65073  900.60578  906.65370  911.64458  918.92042  922.61994  925.88651  928.81591  930.08414  931.15406  933.71829  934.43728  934.59407  932.94813  930.91840  926.84608  920.61949  915.49970  910.02437  905.60364  900.55425  894.84986  889.04816  881.96209  873.86585  865.70236  856.65794  846.98999  836.49160  823.27460  803.45431  770.66412  731.64518  710.01330  698.72230  690.01879  683.71785  681.02663
 150.00000  831.41123  841.85571  843.65588  840.27923  844.49732  842.79362  847.87402  855.53317  847.41617  838.67798  837.93766  841.36449  846.16820  850.45039  856.34676  859.81798  865.90758  869.21448  874.00025  878.40030  883.63799  890.15739  896.12343  902.18148  907.19315  914.46892  918.19705  921.50271  924.47546  925.78579  926.90367  929.48693  930.22686  930.40001  928.76879  926.75234  922.69510  916.49653  911.38725  905.91616  901.49487  896.43734  890.72760  884.91419  877.81191  869.70376  861.52327  852.45626  842.76129  832.22719  818.98040  799.15948  766.46987  727.79337  706.35913  695.06612  686.29902  679.87689  676.97227
 151.00000  826.60521  836.92476  838.64618  835.29544  839.47745  837.79705  842.78681  850.34718  842.37072  833.80915  833.16009  836.65148  841.48578  845.82065  851.73753  855.25232  861.34933  864.69480  869.49478  873.91819  879.18088  885.70470  891.68185  897.75029  902.78255  910.05795  913.81422  917.15806  920.17342  921.52511  922.68956  925.29114  926.05090  926.23922  924.62155  922.61712  918.57392  912.40228  907.30262  901.83504  897.41295  892.34716  886.63201  880.80686  873.68841  865.56817  857.37051  848.28085  838.55888  827.98942  814.71352  794.89307  762.30772  723.98313  702.74864  691.45603  682.62862  676.08886  672.97415
 152.00000  821.83771  832.03549  833.68597  830.36035  834.50061  832.84071  837.74085  845.20503  837.36793  828.98026  828.42098  831.97599  836.84099  841.22847  847.16633  850.72493  856.82991  860.21393  865.02838  869.47527  874.76253  881.29084  887.27922  893.35828  898.41092  905.68570  909.46966  912.85080  915.90808  917.30040  918.51009  921.12936  921.90791  922.11028  920.50506  918.51149  914.48137  908.33564  903.24476  897.78003  893.35694  888.28281  882.56217  876.72530  869.59074  861.45827  853.24330  844.13096  834.38207  823.77760  810.47328  790.65433  758.17663  720.21275  699.17995  687.89002  679.00547  672.35157  669.03003
 153.00000  817.10745  827.18648  828.77338  825.47212  829.56532  827.92333  832.73484  840.10524  832.40638  824.18996  823.71903  827.33672  832.23247  836.67247  842.63168  846.23429  852.34774  855.77026  860.59942  865.06987  870.38128  876.91416  882.91386  889.00376  894.07660  901.35050  905.16171  908.57931  911.67782  913.11012  914.36379  917.00013  917.79648  918.01187  916.41807  914.43430  910.41636  904.29560  899.21274  893.75025  889.32598  884.24343  878.51728  872.66870  865.51810  857.37329  849.14092  840.00590  830.23019  819.59111  806.25903  786.44257  754.07563  716.48062  695.65128  684.36623  675.42760  668.66293  665.13778
 154.00000  812.41330  822.37640  823.90664  820.62904  824.67024  823.04372  827.76758  835.04648  827.48473  819.43701  819.05302  822.73249  827.65898  832.15135  838.13225  841.77899  847.90136  851.36233  856.20640  860.70048  866.03564  872.57314  878.58424  884.68517  889.77801  897.05080  900.88883  904.34211  907.48119  908.95282  910.24929  912.90211  913.71535  913.94278  912.35946  910.38448  906.37789  900.28123  895.20568  889.74490  885.31929  880.22826  874.49658  868.63633  861.46976  853.31257  845.06272  835.90507  826.10268  815.42937  802.07020  782.25716  750.00384  712.78526  692.16097  680.88288  671.89312  665.02098  661.29538
 155.00000  807.75418  817.60403  819.08413  815.82953  819.81410  818.20083  822.83797  830.02749  822.60175  814.72026  814.42186  818.16218  823.11939  827.66394  833.66679  837.35776  843.48945  846.98878  851.84793  856.36568  861.72420  868.26636  874.28892  880.40106  885.51373  892.78516  896.64962  900.13781  903.31684  904.82717  906.16530  908.83407  909.66334  909.90190  908.32816  906.36105  902.36506  896.29169  891.22280  885.76323  881.33614  876.23661  870.49938  864.62751  857.44509  849.27545  841.00811  831.82789  821.99899  811.29187  797.90626  778.09755  745.96043  709.12524  688.70745  677.43830  668.40026  661.42385  657.50092
 156.00000  803.12912  812.86827  814.30433  811.07208  814.99577  813.39365  817.94499  825.04714  817.75630  810.03865  809.82451  813.62480  818.61267  823.20916  829.23417  832.96942  839.11079  842.64837  847.52274  852.06419  857.44568  863.99253  870.02660  876.15010  881.28241  888.55228  892.44277  895.96515  899.18350  900.73195  902.11068  904.79486  905.63936  905.88820  904.32323  902.36313  898.37702  892.32619  887.26338  881.80456  877.37589  872.26783  866.52506  860.64164  853.44348  845.26138  836.97655  827.77387  817.91864  807.17813  793.76673  773.96320  741.94465  705.49926  685.28926  674.03093  664.94735  657.86980  653.75258
 157.00000  798.53721  808.16805  809.56582  806.35533  810.21417  808.62127  813.08771  820.10438  812.94735  805.39121  805.26005  809.11943  814.13784  818.78601  824.83336  828.61290  834.76423  838.33994  843.22966  847.79481  853.19889  859.75045  865.79606  871.93106  877.08284  884.35093  888.26706  891.82294  895.08003  896.66602  898.08433  900.78344  901.64241  901.90074  900.34377  898.38988  894.41301  888.38402  883.32675  877.86829  873.43792  868.32134  862.57305  856.67815  849.46437  841.26984  832.96755  823.74252  813.86118  803.08773  789.65117  769.85364  737.95579  701.90606  681.90501  670.65928  661.53282  654.35716  650.04864
 158.00000  793.97763  803.50244  804.86729  801.67799  805.46832  803.88286  808.26526  815.19822  808.17392  800.77704  800.72761  804.64522  809.69404  814.39359  820.46339  824.28719  830.44876  834.06244  838.96759  843.55643  848.98276  855.53902  861.59619  867.74280  872.91387  880.17998  884.12140  887.71009  891.00535  892.62833  894.08527  896.79884  897.67156  897.93865  896.38897  894.44056  890.47233  884.46453  879.41230  873.95385  869.52169  864.39661  858.64282  852.73653  845.50728  837.30033  828.98064  819.73342  809.82621  799.02026  785.55916  765.76843  733.99321  698.34449  678.55340  667.32198  658.15518  650.88434  646.38749
 159.00000  789.44959  798.87054  800.20749  797.03886  800.75729  799.17763  803.47686  810.32777  803.43513  796.19533  796.22640  800.20138  805.28044  810.03105  816.12340  819.99138  826.16341  829.81490  834.73555  839.34806  844.79626  851.35723  857.42596  863.58427  868.77446  876.03840  880.00473  883.62561  886.95847  888.61791  890.11256  892.84015  893.72596  894.00112  892.45808  890.51446  886.55432  880.56711  875.51948  870.06070  865.62670  860.49313  854.73389  848.81630  841.57174  833.35243  825.01541  815.74617  805.81336  794.97535  781.49035  761.70715  730.05632  694.81345  675.23321  664.01769  654.81302  647.44986  642.76757
 160.00000  784.95240  794.27152  795.58529  792.43682  796.08024  794.50485  798.72176  805.49220  798.73014  791.64530  791.75569  795.78719  800.89632  805.69764  811.81256  815.72462  821.90730  825.59642  830.53262  835.16874  840.63847  847.20412  853.28441  859.45450  864.66363  871.92521  875.91612  879.56856  882.93848  884.63388  886.16536  888.90655  889.80483  890.08742  888.55039  886.61095  882.65839  876.69122  871.64778  866.18838  861.75247  856.61046  850.84582  844.91704  837.65733  829.42573  821.07148  811.78042  801.82227  790.95269  777.44438  757.66944  726.14455  691.31192  671.94328  660.74520  651.50501  644.05231  639.18743
 161.00000  780.48539  789.70463  790.99961  787.87082  791.43639  789.86386  793.99927  800.69075  794.05819  787.12624  787.31479  791.40199  796.54097  801.39262  807.53014  811.48615  817.67962  821.40617  826.35795  831.01761  836.50854  843.07883  849.17066  855.35259  860.58048  867.83952  871.85466  875.53808  878.94453  880.67539  882.24288  884.99727  885.90744  886.19685  884.66528  882.72943  878.78399  872.83634  867.79671  862.33646  857.89860  852.74819  846.97820  841.03834  833.76365  825.51986  817.14851  807.83583  797.85263  786.95194  773.42094  753.65494  722.25740  687.83893  668.68253  657.50334  648.22990  640.69035  635.64567
 162.00000  776.04795  785.16915  786.44945  783.33990  786.82498  785.25404  789.30877  795.92269  789.41856  782.63750  782.90308  787.04516  792.21377  797.11535  803.27543  807.27523  813.47963  817.24339  822.21075  826.89388  832.40565  838.98056  845.08390  851.27770  856.52418  863.78051  867.81954  871.53337  874.97584  876.74168  878.34439  881.11159  882.03310  882.32879  880.80216  878.86936  874.93060  869.00200  863.96586  858.50451  854.06468  848.90593  843.13066  837.17985  829.89036  821.63447  813.24616  803.91208  793.90415  782.97282  769.41973  749.66335  718.39440  684.39357  665.44995  654.29101  644.98652  637.36273  632.14099
 163.00000  771.63951  780.66443  781.93388  778.84313  782.24536  780.67481  784.64967  791.18737  784.81061  778.17848  778.51997  782.71613  787.91411  792.86522  799.04781  803.09121  809.30662  813.10737  818.09030  822.79680  828.32909  834.90856  841.02336  847.22907  852.49395  859.74741  863.81001  867.55369  871.03168  872.83204  874.46922  877.24887  878.18121  878.48265  876.96046  875.03024  871.09777  865.18778  860.15481  854.69218  850.25035  845.08333  839.30286  833.34122  826.03711  817.76926  809.36413  800.00891  789.97655  779.01508  765.44048  745.69434  714.55508  680.97500  662.24457  651.10719  641.77373  634.06824  628.67214
 164.00000  767.25954  776.18986  777.45201  774.37967  777.69687  776.12564  780.02141  786.48417  780.23370  773.74860  774.16494  778.41437  783.64147  788.64167  794.84669  798.93348  805.15996  808.99746  813.99592  818.72569  824.27817  830.86215  836.98836  843.20599  848.48908  855.73950  859.82535  863.59836  867.11137  868.94580  870.61673  873.40850  874.35117  874.65788  873.13970  871.21159  867.28506  861.39326  856.36321  850.89912  846.45528  841.28007  835.49447  829.52214  822.20361  813.92392  805.50215  796.12603  786.06959  775.07845  761.48294  741.74766  710.73905  677.58242  659.06549  647.95088  638.59048  630.80574  625.23793
 165.00000  762.90755  771.74485  773.00303  769.94871  773.17893  771.60601  775.42349  781.81251  775.68727  769.34733  769.83747  774.13940  779.39534  784.44417  790.67152  794.80145  801.03906  804.91305  809.92700  814.67991  820.25226  826.84068  832.97823  839.20777  844.50890  851.75613  855.86491  859.66673  863.21430  865.08236  866.78635  869.58990  870.54246  870.85400  869.33941  867.41299  863.49207  857.61809  852.59070  847.12500  842.67916  837.49584  831.70520  825.72232  818.38958  810.09818  801.65996  792.26322  782.18302  771.16271  757.54685  737.82303  706.94592  674.21507  655.91186  644.82119  635.43578  627.57418  621.83725
 166.00000  758.58309  767.32889  768.58616  765.54951  768.69099  767.11547  770.85542  777.17187  771.17078  764.97420  765.53711  769.89076  775.17524  780.27225  786.52180  790.69462  796.94336  800.85358  805.88296  810.65888  816.25078  822.84356  828.99238  835.23382  840.55280  847.79667  851.92808  855.75822  859.33988  861.24114  862.97754  865.79256  866.75458  867.07052  865.55914  863.63404  859.71843  853.86192  848.83697  843.36955  838.92170  833.73036  827.93478  821.94149  814.59474  806.29181  797.83732  788.42022  778.31662  767.26764  753.63201  733.92021  703.17532  670.87224  652.78287  641.71723  632.30868  624.37252  618.46903
 167.00000  754.28572  762.94146  764.20070  761.18138  764.23251  762.65357  766.31677  772.56174  766.68374  760.62874  761.26340  765.66802  770.98073  776.12545  782.39705  786.61249  792.87236  796.81852  801.86326  806.66204  812.27318  818.87025  825.03025  831.28356  836.62019  843.86057  848.01430  851.87228  855.48757  857.42162  859.18981  862.01599  862.98708  863.30703  861.79850  859.87437  855.96379  850.12442  845.10173  839.63247  835.18264  829.98338  824.18295  818.17941  810.81885  802.50455  794.03401  784.59684  774.47019  763.39303  749.73820  730.03898  699.42693  667.55327  649.67777  638.63821  629.20830  621.19981  615.13226
 168.00000  750.01503  758.58211  759.84596  756.84364  759.80303  758.21991  761.80710  767.98164  762.22567  756.31052  757.01596  761.47079  766.81143  772.00336  778.29684  782.55460  788.82558  792.80740  797.86740  802.68889  808.31895  814.92023  821.09132  827.35645  832.71055  839.94729  844.12304  848.00839  851.65686  853.62330  855.42267  858.25974  859.23951  859.56311  858.05712  856.13364  852.22784  846.40532  841.38470  835.91353  831.46174  826.25466  820.44948  814.43584  807.06169  798.73619  790.24981  780.79287  770.64354  759.53869  745.86522  726.17910  695.70042  664.25753  646.59585  635.58333  626.13378  618.05514  611.82598
 169.00000  745.77066  754.25040  755.52132  752.53569  755.40208  753.81409  757.32604  763.43115  757.79613  752.01915  752.79439  757.29870  762.66693  767.90558  774.22076  778.52053  784.80257  788.81976  793.89493  798.73895  804.38763  810.99302  817.17510  823.45200  828.82338  836.05634  840.25381  844.16608  847.84730  849.84573  851.67571  854.52338  855.51149  855.83841  854.33465  852.41152  848.51029  842.70433  837.68564  832.21248  827.75875  822.54396  816.73414  810.71056  803.32305  794.98652  786.48452  777.00812  766.83648  755.70444  742.01288  722.34039  691.99550  660.98443  643.53644  632.55188  623.08433  614.93764  608.54928
