Temperature as a function of time and angular position 

Angular position
   theta1_[deg]   ..........   theta59_[deg]
              0.00000    2.30770    4.61537    6.92308    9.23076   11.53846   13.84615   16.15385   18.46154   20.76922   23.07693   25.38459   27.69235   29.99999   32.30761   34.61535   36.92316   39.23071   41.53852   43.84614   46.15391   48.46158   50.76920   53.07696   55.38465   57.69245   59.99996   62.30765   64.61545   66.92302   69.23081   71.53845   73.84626   76.15380   78.46165   80.76921   83.07696   85.38453   87.69242   90.00000   91.80880   93.61377   95.41182   97.19925   98.97270  100.72877  102.46490  104.17809  105.86579  107.52549  109.15559  110.75410  112.31952  113.85041  115.34617  116.80583  118.22886  119.61477  120.96376

Time and temperatures for the above positions
  time_[s]   T(theta1)_[K]      ..........  T(theta59)_[K]
   0.00000  302.45000  302.45000  302.45000  302.45000  302.45000  302.45000  302.45000  302.45000  302.45000  302.45000  302.45000  302.45000  302.45000  302.45000  302.45000  302.45000  302.45000  302.45000  302.45000  302.45000  302.45000  302.45000  302.45000  302.45000  302.45000  302.45000  302.45000  302.45000  302.45000  302.45000  302.45000  302.45000  302.45000  302.45000  302.45000  302.45000  302.45000  302.45000  302.45000  302.45000  302.45000  302.45000  302.45000  302.45000  302.45000  302.45000  302.45000  302.45000  302.45000  302.45000  302.45000  302.45000  302.45000  302.45000  302.45000  302.45000  302.45000  302.45000  302.45000
   0.10000  649.06047  654.74740  656.26293  654.25360  650.31043  636.05645  629.79837  626.24916  622.96966  620.16128  617.14683  612.60137  606.23982  601.64900  597.08333  591.29233  586.20415  581.13021  576.47665  571.71433  566.02950  560.48293  554.45935  549.76379  546.25295  540.80925  533.70540  527.32394  523.15125  519.51329  514.99424  509.02937  504.94916  499.88878  493.59054  487.12602  481.13006  475.88741  470.74883  466.82433  464.40712  462.11731  459.74841  457.68994  456.57674  456.84582  457.05047  456.67139  457.12138  458.43334  459.53129  460.51171  461.73731  463.17974  462.85984  461.20538  462.79533  466.91351  472.05319
   0.20000  769.96363  778.03516  779.86046  777.13675  771.47529  752.30429  743.71395  738.43001  733.89322  729.72199  725.04022  718.64132  709.79530  703.29096  696.45445  687.93836  680.55592  673.48636  666.90480  660.23654  651.92641  643.47664  634.45344  627.38291  621.66716  613.39356  602.89404  593.53360  587.28000  581.84368  575.13100  566.59714  560.63873  553.37456  544.61834  535.68485  527.41579  520.15859  513.14524  507.68843  503.99398  500.43025  496.80810  493.56686  491.42642  490.85340  490.19398  488.85708  488.43437  488.94532  489.20043  489.31454  489.68804  490.28433  488.96152  486.22369  486.97463  490.38849  494.85005
   0.30000  855.10849  865.04694  867.27693  864.23095  857.53009  835.03616  824.94999  818.58859  813.30936  808.31458  802.58481  794.99748  784.50097  776.75039  768.40214  758.03720  749.11027  740.70615  732.83270  724.88232  714.75769  704.28203  693.15388  684.42913  677.17751  666.90102  653.97337  642.48426  634.75937  628.05571  619.77738  609.39328  602.09273  593.23902  582.69841  571.96679  562.04072  553.31520  544.93401  538.36241  533.74151  529.25100  524.71484  520.61007  517.72099  516.53693  515.24800  513.20881  512.14634  512.07011  511.70467  511.17881  510.92153  510.89003  508.81871  505.26951  505.39364  508.28203  512.23696
   0.40000  921.02591  932.55424  935.24188  932.08695  924.71464  899.75797  888.62928  881.54779  875.80733  870.28363  863.84366  855.43042  843.73671  835.10383  825.65700  813.91912  803.85579  794.47761  785.65938  776.76731  765.26836  753.24221  740.49343  730.50565  722.08151  710.24928  695.41501  682.25585  673.38985  665.70692  656.20219  644.35484  636.00179  625.88930  613.92598  601.75599  590.50322  580.60235  571.12513  563.66300  558.30443  553.07368  547.80566  543.00870  539.52066  537.85009  536.05780  533.45325  531.87589  531.32712  530.46004  529.41500  528.64491  528.10185  525.41685  521.20010  520.80983  523.26762  526.80682
   0.50000  974.36673  987.29857  990.47384  987.34542  979.53899  952.67997  940.80321  933.23373  927.21468  921.35393  914.42436  905.42240  892.82852  883.55213  873.27813  860.48006  849.54887  839.43419  829.90013  820.29110  807.70805  794.44479  780.39462  769.40210  760.04552  746.95245  730.55503  716.02804  706.23912  697.76756  687.26038  674.20480  664.99063  653.83738  640.68941  627.31764  614.95541  604.07197  593.67754  585.47266  579.50099  573.65304  567.77318  562.39692  558.40870  556.33396  554.12162  551.04187  549.03189  548.08614  546.79561  545.31071  544.10521  543.12676  539.91612  535.12553  534.29424  536.38343  539.56624
   0.60000 1018.66353 1032.85815 1036.53632 1033.52607 1025.45109  997.08893  984.67211  976.77818  970.60879  964.54633  957.28369  947.86194  934.58053  924.83150  913.92512  900.29197  888.68630  878.00635  867.92171  857.75817  844.30109  830.02776  814.90768  803.09788  792.98325  778.84354  761.13242  745.45722  734.90422  725.78296  714.43642  700.35813  690.42234  678.38710  664.22766  649.82618  636.51252  624.78679  613.60530  604.76537  598.27153  591.89612  585.49197  579.61876  575.20246  572.78380  570.21229  566.72313  564.34055  563.05299  561.39602  559.52901  557.94440  556.58591  552.91343  547.61677  546.39762  548.16317  551.03260
   0.70000 1056.08313 1071.42678 1075.61297 1072.78459 1064.56156 1034.99571 1022.19286 1014.09495 1007.86913 1001.70467  994.22528  984.50993  970.70108  960.60783  949.21621  934.91872  922.78528  911.67003  901.16043  890.56609  876.39559  861.28606  845.27358  832.79030  822.05154  807.02992  788.19706  771.54280  760.34815  750.68440  738.62433  723.66652  713.11692  700.32235  685.28521  669.98693  655.84394  643.38438  631.51649  622.12488  615.17936  608.34606  601.48545  595.17912  590.39070  587.67498  584.79162  580.94406  578.23549  576.64896  574.66975  572.46538  570.54527  568.84959  564.76451  559.01401  557.44802  558.92468  561.51395
   0.80000 1088.07848 1104.47507 1109.16722 1106.56523 1098.28399 1067.74656 1054.67504 1046.46431 1040.25246 1034.06134 1026.45406 1016.54219 1002.33035  991.99238  980.23028  965.40240  952.85622  941.40759  930.57176  919.64403  904.88728  889.07962  872.31590  859.27353  848.01726  832.24520  812.44410  794.94609  783.20777  773.08737  760.41469  744.69225  733.61541  720.16006  704.35273  688.26452  673.39042  660.28429  647.81104  637.93496  630.59462  623.35956  616.09725  609.40934  604.29403  601.31917  598.16224  593.99753  591.00067  589.14985  586.88415  584.37858  582.15817  580.15989  575.70187  569.53952  567.65976  568.87554  571.21141
   0.90000 1115.68450 1133.05051 1138.24135 1135.89647 1127.62485 1096.29986 1083.05078 1074.79729 1068.65283 1062.49277 1054.82669 1044.79439 1030.27835 1019.77434 1007.73324  992.48247  979.61579  967.91551  956.83276  945.65009  930.41029  914.01687  896.61708  883.10888  871.42214  855.00737  834.36408  816.13353  803.93202  793.42553  780.22334  763.83104  752.29840  738.26366  721.77501  704.98524  689.46130  675.78089  662.76942  652.46458  644.77663  637.18641  629.56788  622.54121  617.13663  613.93424  610.53565  606.08812  602.83436  600.74814  598.22575  595.44906  592.95769  590.68558  585.88755  579.34819  577.18210  578.16029  580.26503
   1.00000 1139.67108 1157.93246 1163.61093 1161.54368 1153.33320 1121.36888 1108.01373 1099.77181 1093.73546 1087.65101 1079.98038 1069.88800 1055.14738 1044.54036 1032.29424 1016.70825 1003.59624  991.71083  980.44587  969.07247  953.43482  936.54880  918.60865  904.71204  892.66718  875.69964  854.31976  835.44986  822.85254  812.01909  798.35720  781.37479  769.44646  754.90096  737.80599  720.38931  704.28422  690.09065  676.59777  665.91136  657.91580  650.00996  642.07380  634.74474  629.08287  625.67983  622.06673  617.36560  613.88168  611.58469  608.83095  605.80878  603.07139  600.54995  595.43989  588.55310  586.12402  586.88443  588.77697
   1.10000 1160.62987 1179.72004 1185.87236 1184.09558 1175.98530 1143.50244 1130.09772 1121.90962 1116.01236 1110.03793 1102.40558 1092.30134 1077.40093 1066.74183 1054.35116 1038.50231 1025.20685 1013.19109 1001.79732  990.28631  974.32209  957.02171  938.62184  924.40200  912.05997  894.61585  872.58916  853.15919  840.22329  829.11310  815.05104  797.54669  785.27404  770.27653  752.63956  734.66005  718.03282  703.37862  689.45320  678.42585  670.15714  661.96976  653.74926  646.14921  640.25766  636.67724  632.87314  627.94369  624.25275  621.76633  618.80323  615.55778  612.59599  609.84643  604.44855  597.23988  594.56801  595.12782  596.82454
   1.20000 1179.02709 1198.88562 1205.49605 1204.01671 1196.03605 1163.13391 1149.72440 1141.62294 1135.88813 1130.05018 1122.48996 1112.41251 1097.40538 1086.73558 1074.25014 1058.19865 1044.77115 1032.67044 1021.19225 1009.58797  993.35737  975.70908  956.91815  942.43047  929.84315  911.98774  889.39145  869.46966  856.24433  844.90057  830.48967  812.52236  799.94979  784.55121  766.42809  747.94146  730.84342  715.77433  701.45896  690.12606  681.61428  673.17512  664.69937  656.85577  650.75874  647.02133  643.04683  637.91122  634.03359  631.37649  628.22332  624.77409  621.60690  618.64787  612.98341  605.47528  602.57834  602.95263  604.46795
   1.30000 1195.23747 1215.80909 1222.86058 1221.68113 1213.85194 1180.61261 1167.23378 1159.24432 1153.68928 1148.00794 1140.54652 1130.52685 1115.45670 1104.80988 1092.27081 1076.06712 1062.55049 1050.40267 1038.87718 1027.21681 1010.77106  992.83170  973.70869  959.00063  946.21255  928.00224  904.90341  884.54907  871.07691  859.53697  844.82195  826.44319  813.60946  797.85437  779.29409  760.34927  742.82555  727.38181  712.71396  701.10671  692.37835  683.71366  675.00836  666.94547  660.66435  656.78802  652.66137  647.33927  643.29298  640.48184  637.15575  633.52006  630.16435  627.01240  621.10022  613.31251  610.20626  610.40844  611.75518
   1.40000 1209.56704 1230.80097 1238.27562 1237.39503 1229.73313 1196.22482 1182.90467 1175.04655 1169.68378 1164.17410 1156.83237 1146.89526 1131.79811 1121.20169 1108.64312 1092.32963 1078.75983 1066.59656 1055.05488 1043.36975 1026.75269 1008.57120  989.16707  974.27958  961.32915  942.81304  919.27031  898.53529  884.85346  873.15000  858.17007  839.42521  826.36439  810.29211  791.33799  771.97832  754.06892  738.28621  723.29917  711.44527  702.52389  693.65703  684.74506  676.48452  670.03839  666.03925  661.77680  656.28578  652.08696  649.13670  645.65305  641.84644  638.31734  634.98734  628.84434  620.79487  617.49345  617.53557  618.72522
   1.50000 1222.26903 1244.11843 1251.99785 1251.41242 1243.92886 1210.20839 1196.96887 1189.25659 1184.09469 1178.76762 1171.56173 1161.72688 1146.63246 1136.10872 1123.55894 1107.17141 1093.57864 1081.42641 1069.89470 1058.21124 1041.46054 1023.07927 1003.43830  988.40682  975.32740  956.54843  932.61343  911.54340  897.68452  885.84616  870.63592  851.56516  838.30738  821.95284  802.64347  782.90758  764.64822  748.55842  733.28195  721.20617  712.11285  703.06474  693.96662  685.52786  678.93389  674.82645  670.44288  664.79879  660.46200  657.38608  653.75876  649.79525  646.10645  642.61183  636.25329  627.95815  624.47433  624.36729  625.41028
   1.60000 1233.55525 1255.97679 1264.24240 1263.94637 1256.64835 1222.76318 1209.62131 1202.06545 1197.10989 1191.97301 1184.91524 1175.19815 1160.13095 1149.69788 1137.18034 1120.74898 1107.15862 1095.03962 1083.53984 1071.88037 1055.02852 1036.48425 1016.64506 1001.50044  988.32104  969.31698  945.03537  923.67075  909.66356  897.71554  882.30568  862.94482  849.51689  832.91125  813.28116  793.20373  774.62646  758.25822  742.71909  730.44373  721.19742  711.98694  702.72120  694.12176  687.39544  683.19283  678.70147  672.91867  668.45713  665.26778  661.50939  657.40175  653.56569  649.91870  643.35852  634.83236  631.17778  630.93153  631.83734
   1.70000 1243.60449 1266.55801 1275.19126 1275.17734 1268.06897 1234.05878 1221.02751 1213.63544 1208.88913 1203.94732 1197.04674 1187.45944 1172.43958 1162.11161 1149.64569 1133.19602 1119.62936 1107.56213 1096.11273 1084.49609 1067.57114 1048.89591 1028.89232 1013.66143 1000.40739  981.21157  956.62390  935.00062  920.87055  908.83519  893.25303  873.63411  860.05994  843.23118  823.31146  802.92374  784.05750  767.43668  751.65908  739.20428  729.82214  720.46637  711.04982  702.30564  695.46107  691.17521  686.58818  680.67977  676.10554  672.81393  668.93602  664.69591  660.72400  656.93582  650.18672  641.44295  637.62829  637.25194  638.02929
   1.80000 1252.56884 1276.01707 1284.99960 1285.25934 1278.34229 1244.24023 1231.32921 1224.10569 1219.56946 1214.82533 1208.08840 1198.64004 1183.68394 1173.47249 1161.07414 1144.62771 1131.10261 1119.10258 1107.71899 1096.16106 1079.18730 1060.40906 1040.27075 1024.97707 1011.67056  992.31245  967.45490  945.60498  931.37458  919.27168  903.54164  883.69344  869.99448  852.96776  832.78649  812.11676  792.98777  776.13783  760.14372  747.52779  738.02540  728.53988  718.98782  710.11342  703.16346  698.80527  694.13365  688.11163  683.43576  680.05215  676.06529  671.70346  667.60616  663.68711  656.76081  647.81177  643.84684  643.34880  644.00572
   1.90000 1260.57854 1284.48685 1293.80065 1294.32477 1287.59872 1253.43247 1240.64862 1233.59625 1229.26929 1224.72364 1218.15461 1208.85189 1193.97290 1183.88688 1171.56914 1155.14409 1141.67546 1129.75544 1118.45052 1106.96462 1089.96305 1071.10626 1050.85930 1035.52338 1022.18380 1002.68959  977.59447  955.54656  941.23590  929.08304  913.22700  893.17545  879.37095  862.16903  841.75166  820.82563  801.45773  784.40001  768.20942  755.44902  745.84058  736.23950  726.56593  717.57461  710.53105  706.11050  701.36448  695.23988  690.47255  687.00637  682.92035  678.44669  674.23369  670.19329  663.10061  653.95770  649.85160  649.23965  649.78360
   2.00000 1267.74574 1292.08192 1301.70942 1302.48808 1295.95114 1261.74378 1249.09177 1242.21141 1238.09154 1233.74368 1227.34500 1218.19263 1203.40144 1193.44762 1181.22105 1164.83264 1151.43285 1139.60339 1128.38779 1116.98504 1099.97387 1081.05991 1060.72727 1045.36707 1032.01145 1012.40438  987.10068  964.88044  950.50740  938.32024  922.35785  902.12638  888.23369  870.87715  850.24684  829.08793  809.50288  792.25688  775.88809  762.99846  753.29694  743.59331  733.81105  724.71504  717.58870  713.11499  708.30395  702.08695  697.23754  693.69754  689.52138  684.94507  680.62535  676.47244  669.22343  659.89725  655.65842  654.93980  655.37769
   3.00000 1309.42138 1336.68638 1348.61552 1351.37807 1346.45899 1312.48577 1301.12869 1295.80807 1293.48743 1290.90303 1286.11410 1278.46084 1264.77744 1256.23134 1245.15386 1229.55853 1217.17057 1206.50566 1196.45349 1186.17855 1169.65538 1150.89118 1130.49664 1115.49886 1102.55792 1082.65931 1056.35018 1033.36399 1019.01452 1007.04850  990.75881  969.62921  955.51127  937.40777  915.56134  893.00588  872.11890  853.77098  836.35662  822.78725  812.67653  802.47363  792.12802  782.48560  774.97630  770.34868  765.27580  758.55971  753.28340  749.37255  744.67749  739.46437  734.46003  729.56000  721.17834  710.47398  705.27172  703.79912  703.47615
   4.00000 1324.40745 1353.07309 1366.21631 1370.11049 1366.21436 1332.74056 1322.32143 1318.07243 1316.95286 1315.58603 1311.97842 1305.48567 1292.81096 1285.43327 1275.42687 1260.75162 1249.40537 1239.87615 1230.97922 1221.86098 1206.17803 1188.08168 1168.24217 1154.03034 1141.90908 1122.43540 1096.13398 1073.27583 1059.50551 1048.23421 1032.30619 1011.17767  997.46168  979.42252  957.32374  934.37497  913.12961  894.53025  876.87972  863.30039  853.34871  843.23006  832.90997  823.29011  815.90516  811.55412  806.66966  799.95671  794.72236  790.88158  786.13224  780.76063  775.54508  770.36911  761.39582  749.88745  744.18330  742.35551  741.65561
   5.00000 1330.51772 1359.82900 1373.57664 1378.08534 1374.78197 1341.72885 1331.90594 1328.32574 1327.95032 1327.35733 1324.52696 1318.81564 1306.88489 1300.32859 1291.12297 1277.19944 1266.67919 1258.02965 1250.03859 1241.84678 1226.94485 1209.55933 1190.37509 1176.94921 1165.64576 1146.77844 1120.85222 1098.43496 1085.35912 1074.83467 1059.47377 1038.69505 1025.56518 1007.89749  985.95651  963.06350  941.88178  923.40606  905.87804  892.57127  883.00985  873.22845  863.20144  853.86819  846.83660  842.94504  838.45361  831.99337  827.03387  823.48275  818.92387  813.65457  808.49072  803.30054  794.04875  782.06486  776.07579  774.03333  773.16753
   6.00000 1336.11990 1365.47349 1379.35375 1384.23387 1381.34239 1348.96436 1339.65976 1336.60581 1336.78218 1336.77723 1334.53805 1329.36725 1318.12365 1312.11705 1303.53995 1290.32260 1280.50880 1272.47106 1265.08163 1257.51638 1243.27640 1226.64978 1208.18472 1195.44592 1184.85570 1166.69982 1141.50742 1119.80251 1107.33515 1097.20131 1082.34948 1062.06962 1049.36787 1032.05129 1010.33617  987.61341  966.54586  948.17614  930.71763  917.55246  908.22384  898.67268  888.86811  879.75622  872.95330  869.32285  865.06833  858.78909  854.00857  850.63345  846.21149  841.02405  835.89930  830.64865  821.13208  808.61908  801.85771  798.73902  797.51237
   7.00000 1342.05467 1370.96103 1384.58920 1389.66168 1387.05278 1355.60444 1346.78037 1344.15514 1344.74594 1345.20023 1343.41835 1338.60065 1328.01786 1322.34140 1314.26094 1301.72672 1292.52960 1284.87897 1277.83042 1270.63219 1256.94827 1241.12241 1223.42638 1211.27707 1201.29636 1183.92687 1159.76559 1138.99005 1127.02808 1116.95568 1102.53101 1082.84912 1070.40046 1053.37740 1031.90556 1009.41239  988.46228  970.14155  952.67201  939.49229  930.21837  920.76470  911.08215  902.09589  895.37200  891.78610  887.58928  881.38843  876.66272  873.32309  868.95205  863.79117  858.65705  853.26521  843.45672  830.32536  822.30600  817.29543  815.40770
   8.00000 1348.16653 1376.27986 1389.37592 1394.50121 1392.06838 1361.71955 1353.33567 1351.05025 1351.93982 1352.74743 1351.31184 1346.69929 1336.74024 1331.22299 1323.53132 1311.64822 1302.98666 1295.54884 1288.64043 1281.60819 1268.38927 1253.37816 1236.47083 1224.82201 1215.35681 1198.80739 1175.87241 1156.16121 1144.61044 1134.37346 1120.30446 1101.27932 1088.94762 1072.16768 1050.94720 1028.72539 1007.89765  989.58767  972.06210  958.75758  949.40908  939.95632  930.32212  921.39057  914.63518  910.93328  906.66036  900.46113  895.69781  892.28883  887.90335  882.72737  877.54697  871.95448  861.83686  848.03175  838.42300  830.97616  828.11967
   9.00000 1354.32491 1381.41887 1393.79099 1398.86359 1396.52045 1367.36997 1359.38443 1357.35810 1358.44998 1359.52496 1358.34485 1353.82336 1344.44305 1338.95562 1331.56572 1320.29501 1312.09594 1304.73969 1297.82177 1290.80445 1277.97274 1263.76778 1247.64431 1236.41529 1227.38112 1211.65210 1190.05388 1171.47450 1160.24986 1149.70630 1135.93097 1117.58813 1105.27044 1088.68988 1067.72122 1045.79768 1025.09817 1006.77606  989.17725  975.67593  966.16447  956.64630  947.00914  938.08227  931.21777  927.28656  922.84219  916.58963  911.72307  908.16999  903.72231  898.50115  893.24750  887.41301  876.97756  862.47156  851.07080  840.86740  836.74407
  10.00000 1360.42166 1386.36778 1397.89745 1402.84092 1400.51873 1372.60691 1364.97723 1363.13711 1364.35166 1365.62542 1364.62771 1360.11197 1351.25990 1345.70812 1338.55085 1327.84901 1320.04688 1312.67734 1305.64335 1298.53213 1286.02156 1272.59632 1257.23244 1246.35058 1237.67212 1222.73754 1202.51736 1185.08277 1174.10844 1163.18344 1149.64836 1131.98651 1119.60797 1103.18909 1082.46660 1060.85580 1040.29077 1021.94590 1004.27773  990.53897  980.80998  971.18506  961.51213  952.55718  945.53333  941.29892  936.61983  930.27722  925.26413  921.51738  916.97449  911.68779  906.34233  900.23980  889.48500  874.27421  860.98479  847.88659  842.22162
  11.00000 1366.36874 1391.11723 1401.74598 1406.50844 1404.15380 1377.47353 1370.15743 1368.43802 1369.71032 1371.12920 1370.25626 1365.68516 1357.30745 1351.62666 1344.64816 1334.46851 1327.00481 1319.55751 1312.33676 1305.05810 1292.81307 1280.12739 1265.48392 1254.88429 1246.49498 1232.30883 1213.45264 1197.13282 1186.34217 1175.01321 1161.67268 1144.66928 1132.17849 1115.88914 1095.40242 1074.10858 1053.68414 1035.31550 1017.59708 1003.60554  993.63192  983.87917  974.15263  965.15095  957.93989  953.36076  948.41017  941.95577  936.77119  932.80190  928.14309  922.77856  917.32979  910.94591  899.87626  883.97549  868.78635  852.79982  845.35231
  12.00000 1372.09599 1395.65885 1405.37647 1409.92650 1407.49929 1382.00596 1374.96195 1373.30472 1374.58264 1376.10577 1375.31331 1370.64587 1362.68711 1356.83700 1349.99627 1340.29052 1333.11326 1325.54875 1318.09996 1310.60941 1298.58347 1286.58718 1272.61392 1262.23895 1254.08064 1240.58226 1223.03292 1207.76503 1197.10045 1185.38443 1172.19972 1155.81598 1143.18090 1126.99392 1106.72903 1085.74806 1065.46981 1047.08362 1029.34437 1015.10457 1004.88105  994.99547  985.20941  976.15362  968.74549  963.80619  958.56875  951.99295  946.62669  942.42277  937.63736  932.18927  926.63154  919.96344  908.58837  892.02716  874.99476  856.23831  846.80908
  13.00000 1377.54912 1399.98536 1408.81946 1413.14247 1410.61393 1386.23417 1379.42211 1377.77506 1379.01751 1380.61482 1379.87002 1375.08175 1367.48650 1361.44657 1354.71337 1345.43280 1338.49608 1330.79513 1323.10076 1315.37739 1303.53215 1292.16822 1278.80742 1268.60654 1260.62898 1247.74779 1231.41584 1217.11303 1206.52565 1194.46785 1181.40643 1165.59171 1152.79596 1136.68872 1116.62918 1095.95045 1075.82313 1057.43081 1039.70623 1025.23784 1014.77606 1004.76503  994.92275  985.81424  978.21327  972.91893  967.39622  960.69900  955.15251  950.71511  945.80050  940.26836  934.60079  927.65399  915.98689  898.80599  880.03839  858.71363  847.15059
  14.00000 1382.68780 1404.09065 1412.09751 1416.19247 1413.54349 1390.18285 1383.56436 1381.88157 1383.05693 1384.70740 1383.98719 1379.06681 1371.78094 1365.54645 1358.89937 1349.99593 1343.25946 1335.41889 1327.48000 1319.52154 1307.82563 1297.03292 1284.22221 1274.15147 1266.31184 1253.97139 1238.74440 1225.30350 1214.75286 1202.41741 1189.45228 1174.14785 1161.18751 1145.14143 1125.26915 1104.87698 1084.90427 1066.52070 1048.84889 1034.18259 1023.50674 1013.38684 1003.49846  994.34522  986.56630  980.93772  975.14440  968.33306  962.61667  957.95713  952.91700  947.30441  941.52989  934.31651  922.37388  904.62211  884.26507  860.63201  846.83330
  15.00000 1387.48388 1407.96982 1415.22641 1419.10297 1416.32252 1393.87215 1387.41093 1385.65212 1386.73685 1388.42694 1387.71641 1382.66304 1375.63476 1369.21318 1362.63798 1354.06513 1347.49384 1339.52273 1331.35465 1323.17313 1311.60127 1301.31688 1288.99182 1279.01346 1271.27585 1259.39726 1245.14791 1232.45598 1221.90957 1209.37154 1196.48059 1181.62291 1168.50365 1152.50375 1132.79977 1112.67483 1092.85914 1074.50115 1056.92004 1042.09392 1031.23701 1021.03122 1011.11165 1001.92637  993.99206  988.06152  982.02182  975.10907  969.23960  964.37674  959.21955  953.53317  947.65754  940.19469  927.99531  909.72692  887.95184  862.30759  846.22274
  16.00000 1391.91981 1411.61921 1418.21634 1421.89230 1418.97600 1397.31844 1390.98048 1389.11058 1390.08795 1391.81018 1391.10120 1385.92188 1379.10259 1372.51049 1365.99860 1357.71205 1351.27565 1343.19218 1334.82057 1326.43862 1314.97075 1305.13195 1293.22815 1283.31020 1275.64510 1264.14989 1250.74288 1238.68276 1228.11548 1215.45428 1202.61973 1188.14323 1174.87781 1158.91233 1139.35749 1119.47793 1099.82034 1081.50547 1064.05051 1049.10706 1038.10770 1027.84301 1017.91020 1008.70865 1000.64667  994.45419  988.19903  981.20127  975.19995  970.15778  964.89541  959.14407  953.17534  945.48370  933.04802  914.32033  891.31394  863.97473  845.60412
  17.00000 1395.98706 1415.03648 1421.07295 1424.57199 1421.52092 1400.53494 1394.28870 1392.27738 1393.13637 1394.88812 1394.17802 1388.88553 1382.23051 1375.49087 1369.03809 1360.99636 1354.66899 1346.49757 1337.95515 1329.40273 1318.02328 1308.56918 1297.02402 1287.13986 1279.52360 1268.33608 1255.63389 1244.08882 1233.48243 1220.77652 1207.98433 1193.82373 1180.42989 1164.48987 1145.06532 1125.40781 1105.90795 1087.65346 1070.35595 1055.33948 1044.23917 1033.94459 1024.01803 1014.81765 1006.65866 1000.24897  993.81335  986.74927  980.63998  975.44571  970.09231  964.28625  958.23396  950.33660  937.68606  918.55754  894.51314  865.79929  845.19218
  18.00000 1399.68481 1418.22059 1423.79829 1427.14806 1423.96756 1403.53232 1397.34880 1395.17008 1395.90436 1397.68676 1396.97728 1391.58830 1385.05713 1378.19705 1371.80244 1363.96729 1357.72713 1349.49605 1340.81978 1332.13142 1320.82860 1311.70139 1300.45547 1290.58342 1282.99762 1272.04672 1259.91440 1248.77179 1238.11432 1225.43698 1212.67639 1198.76859 1185.26722 1169.34614 1150.03381 1130.57438 1111.23047 1093.05247 1075.93834 1060.89285 1049.73370 1039.43858 1029.53809 1020.35688 1012.13266 1005.55250  998.97342  991.86275  985.67055  980.35289  974.92393  969.07415  962.94881  954.87012  942.02667  922.55525  897.66544  867.88916  845.14040
  19.00000 1403.01867 1421.17182 1426.39164 1429.62214 1426.32086 1406.31926 1400.17201 1397.80379 1398.41090 1400.22790 1399.52413 1394.05771 1387.61462 1380.66340 1374.32830 1366.66498 1360.49394 1352.23334 1343.46204 1334.67451 1323.43970 1314.58571 1303.58394 1293.70683 1286.13786 1275.35858 1263.66762 1252.82201 1242.10710 1229.52328 1216.78633 1203.07198 1189.48555 1173.57900 1154.36190 1135.07669 1115.88557 1097.79842 1080.88740 1065.85486 1054.67775 1044.41041 1034.55511 1025.41067 1017.15263 1010.44861 1003.76324  996.62576  990.37567  984.96349  979.47490  973.59262  967.40523  959.17007  946.15567  926.39741  900.84815  870.30374  845.54952
  20.00000 1405.99951 1423.89179 1428.85039 1431.99253 1428.58152 1408.90293 1402.76802 1400.19171 1400.67226 1402.52983 1401.83934 1396.31557 1389.92960 1382.91712 1376.64434 1369.12185 1363.00517 1354.74541 1345.91782 1337.06820 1325.89540 1317.26583 1306.45825 1296.56299 1289.00141 1278.33588 1266.96724 1256.32260 1245.54882 1233.11291 1220.39404 1206.81866 1193.17001 1177.27536 1158.13787 1139.00370 1119.96086 1101.97672 1085.28188 1070.30091 1059.14399 1048.93066 1039.13818 1030.04695 1021.78490 1015.00173 1008.24599 1001.10074  994.81671  989.33790  983.80541  977.90165  971.66328  963.29620  950.13248  930.14044  904.10633  873.06272  846.47540
  21.00000 1408.64244 1426.38346 1431.17063 1434.25511 1430.74709 1411.28942 1405.14537 1402.34546 1402.70253 1404.60793 1403.94003 1398.37897 1392.02404 1384.97944 1378.77258 1371.36371 1365.28970 1357.05997 1348.21316 1339.33726 1328.22262 1319.77408 1309.11645 1299.19361 1291.63365 1281.03181 1269.87820 1259.34958 1248.51979 1236.27412 1223.56978 1210.08467 1196.39594 1180.51203 1161.44012 1142.43496 1123.53470 1105.66317 1089.19081 1074.29562 1063.19322 1053.05717 1043.34307 1034.31976 1026.08096 1019.26004 1012.46747 1005.33205  999.03625  993.51682  987.95542  982.04058  975.76206  967.28675  953.99462  933.81808  907.45867  876.15395  847.93636
  22.00000 1410.96589 1428.65107 1433.34785 1436.40419 1432.81283 1413.48416 1407.31177 1404.27547 1404.51401 1406.47526 1405.84030 1400.26117 1393.91599 1386.86664 1380.72953 1373.41088 1367.37060 1359.19787 1350.36603 1341.49716 1330.43855 1322.13336 1311.58750 1301.63089 1294.06992 1283.48994 1272.45741 1261.97201 1251.09269 1239.06682 1226.37510 1212.93794 1199.22976 1183.35668 1164.33794 1145.44134 1126.67683 1108.92480 1092.67461 1077.89429 1066.87603 1056.83703 1047.21432 1038.27146 1030.07992 1023.25834 1016.45918 1009.34932 1003.06148  997.52489  991.94840  986.03206  979.72371  971.16246  957.76188  937.44565  910.90285  879.54057  849.91977
  23.00000 1412.99076 1430.70014 1435.37743 1438.43322 1434.77263 1415.49223 1409.27448 1405.99132 1406.11770 1408.14306 1407.55188 1401.97237 1395.62031 1388.59101 1382.52726 1375.27918 1369.26616 1361.17436 1352.38786 1343.55589 1332.55251 1324.35886 1313.89282 1303.89910 1296.33711 1285.74549 1274.75445 1264.25225 1253.33277 1241.54334 1228.86370 1215.43887 1201.72974 1185.86854 1166.89235 1148.08566 1129.44913 1111.82067 1095.78609 1081.14413 1070.23446 1060.30833 1050.78721 1041.93487 1033.81086 1027.02060 1020.24119 1013.17034 1006.90741 1001.37409  995.79485  989.88549  983.55688  974.93029  961.44001  941.02402  914.42031  883.16745  852.38820
  24.00000 1414.73969 1432.53747 1437.25515 1440.33549 1436.61969 1417.31866 1411.04048 1407.50202 1407.52361 1409.62121 1409.08466 1403.52046 1397.14929 1390.16171 1384.17436 1376.98081 1370.99078 1363.00021 1354.28498 1345.51566 1334.56773 1326.45963 1316.04767 1306.01594 1298.45506 1287.82655 1276.81221 1266.24609 1255.29813 1243.74922 1231.08218 1217.64091 1203.94680 1188.09926 1169.15674 1150.42333 1131.90622 1114.40265 1098.57143 1084.08551 1073.30331 1063.50174 1054.08942 1045.33505 1037.29477 1030.56228 1023.82461 1016.80378 1010.57960 1005.06663  999.49526  993.60017  987.26001  978.58662  965.02405  944.54309  917.98054  886.96679  855.28494
  25.00000 1416.23638 1434.17103 1438.97756 1442.10464 1438.34718 1418.96870 1412.61681 1408.81624 1408.74110 1410.91864 1410.44717 1404.91167 1398.51326 1391.58554 1385.67683 1378.52514 1372.55576 1364.68276 1356.05988 1347.37437 1336.48288 1328.43999 1318.06240 1307.99387 1300.43791 1289.75518 1278.66756 1268.00310 1257.03998 1245.72393 1233.07084 1219.59114 1205.92516 1190.09363 1171.17761 1152.50298 1134.09610 1116.71608 1101.07100 1086.75297 1076.11148 1066.44197 1057.14264 1048.49098 1040.54646 1033.89236 1027.21390 1020.25147 1014.07669 1008.59764 1003.04293  997.16808  990.82408  982.12027  968.50131  947.98488  921.54484  890.86315  858.53898
  26.00000 1417.50509 1435.60996 1440.54232 1443.73516 1439.94879 1420.44802 1414.01068 1409.94257 1409.77918 1412.04367 1411.64701 1406.15108 1399.72106 1392.86762 1387.03876 1379.91946 1373.97010 1366.22680 1357.71230 1349.12701 1338.29344 1330.30080 1319.94364 1309.84120 1302.29521 1291.54837 1280.35194 1269.56685 1258.60294 1247.50153 1234.86433 1221.33077 1207.70304 1191.89023 1172.99520 1154.36706 1136.06077 1118.80045 1103.32016 1089.17617 1078.68310 1069.14903 1059.96391 1051.41705 1043.57612 1037.01519 1030.40879 1023.51055 1017.39260 1011.95748 1006.42629 1000.57635  994.23513  985.51496  971.85393  951.32632  925.06971  894.77780  862.06956
  27.00000 1418.57009 1436.86449 1441.94848 1445.22281 1441.41916 1421.76288 1415.22966 1410.88967 1410.64670 1413.00430 1412.69124 1407.24319 1400.78051 1394.01197 1388.26311 1381.16959 1375.24108 1367.63542 1359.24027 1350.76674 1339.99288 1332.04054 1321.69521 1311.56316 1304.03301 1293.21900 1281.89191 1270.97527 1260.02540 1249.11129 1236.49231 1222.89564 1209.31331 1193.52211 1174.64413 1156.05235 1137.83673 1120.69007 1105.34995 1091.38077 1081.03849 1071.63932 1062.56682 1054.12426 1046.39071 1039.93208 1033.40605 1026.57521 1020.51839 1015.13374 1009.63103 1003.80932  997.47642  988.75164  975.06119  954.54159  928.50969  898.63244  865.79009
  28.00000 1419.45530 1437.94588 1443.19671 1446.56488 1442.75433 1422.92026 1416.28184 1411.66644 1411.35259 1413.80853 1413.58669 1408.19227 1401.69878 1395.02207 1389.35218 1382.28044 1376.37486 1368.91065 1360.64095 1352.28598 1341.57377 1333.65631 1323.31910 1313.16278 1305.65481 1294.77667 1283.30975 1272.26095 1261.33991 1250.57825 1237.98008 1224.31675 1210.78401 1195.01739 1176.15395 1157.59054 1139.45559 1122.41455 1107.18773 1093.38912 1083.19510 1073.92664 1064.96255 1056.62143 1048.99521 1042.64260 1036.20095 1029.43830 1023.44395 1018.11298 1012.64187 1006.85043 1000.53029  991.81032  978.10146  957.60417  931.81984  902.35236  869.61173
  29.00000 1420.18394 1438.86635 1444.28939 1447.76051 1443.95200 1423.92799 1417.17589 1412.28212 1411.90603 1414.46452 1414.34022 1409.00277 1402.48276 1395.90125 1390.30819 1383.25649 1377.37696 1370.05410 1361.91134 1353.67723 1343.02863 1335.14464 1324.81616 1314.64169 1307.16235 1296.22838 1284.62393 1273.45148 1262.57354 1251.92378 1239.34908 1225.62069 1212.13899 1196.39984 1177.54972 1159.00872 1140.94450 1123.99946 1108.85770 1095.22100 1085.16819 1076.02301 1067.16079 1058.91607 1051.39366 1045.14580 1038.78852 1032.09260 1026.15933 1020.88222 1015.44408 1009.68374 1003.37971  994.67176  980.95380  960.48859  934.95781  905.86903  873.44647
  30.00000 1420.77825 1439.63899 1445.23079 1448.81082 1445.01174 1424.79475 1417.92115 1412.74643 1412.31654 1414.98076 1414.95896 1409.67958 1403.13933 1396.65313 1391.13368 1384.10218 1378.25267 1371.06747 1363.04895 1354.93385 1344.35071 1336.50225 1326.18682 1316.00081 1308.55634 1297.57928 1285.84964 1274.56985 1263.74829 1253.16606 1240.61746 1226.83012 1213.39835 1197.68943 1178.85254 1160.32985 1142.32669 1125.46670 1110.38142 1096.89409 1086.97158 1077.93938 1069.17046 1061.01522 1053.58997 1047.44115 1041.16464 1034.53196 1028.65596 1023.43012 1018.02471 1012.29519 1006.00960  997.31873  983.59937  963.17182  937.88552  909.12217  877.20972
  31.00000 1421.25929 1440.27771 1446.02707 1449.71909 1445.93522 1425.53019 1418.52765 1413.06961 1412.59412 1415.36626 1415.45049 1410.22831 1403.67557 1397.28188 1391.83182 1384.82228 1379.00743 1371.95300 1364.05227 1356.05058 1345.53458 1337.72657 1327.43163 1317.24091 1309.83710 1298.83320 1286.99922 1275.63481 1264.88157 1254.32052 1241.80052 1227.96413 1214.57898 1198.90276 1180.07998 1161.57327 1143.62189 1126.83509 1111.77826 1098.42453 1088.61808 1079.68622 1071.00038 1062.92609 1055.58867 1049.52933 1043.32680 1036.75212 1030.92749 1025.74795 1020.37359 1014.67363 1008.40783  999.73718  986.02250  965.63442  940.57051  912.06139  880.82261
  32.00000 1421.64681 1440.79710 1446.68631 1450.49075 1446.72624 1426.14484 1419.00618 1413.26245 1412.74931 1415.63060 1415.82299 1410.65542 1404.09900 1397.79247 1392.40672 1385.42213 1379.64707 1372.71374 1364.92119 1357.02408 1346.57667 1338.81628 1328.55170 1318.36313 1311.00507 1299.99316 1288.08259 1276.66124 1265.98660 1255.40027 1242.91115 1229.03870 1215.69494 1200.05360 1181.24661 1162.75507 1144.84673 1128.12068 1113.06570 1099.82729 1090.12005 1081.27400 1072.65969 1064.65654 1057.39547 1051.41281 1045.27483 1038.75145 1032.97055 1027.83034 1022.48412 1016.81157 1010.56606 1001.91695  988.21153  967.86145  942.98696  914.64729  884.21383
  33.00000 1421.95912 1441.21236 1447.21846 1451.13345 1447.39083 1426.65018 1419.36820 1413.33633 1412.79320 1415.78400 1416.08529 1410.96839 1404.41768 1398.19087 1392.86364 1385.90788 1380.17809 1373.35388 1365.65732 1357.85328 1347.47560 1339.77165 1329.54913 1319.36936 1312.06124 1301.06185 1289.10770 1277.66057 1267.07287 1256.41646 1243.96020 1230.06706 1216.75790 1201.15327 1182.36435 1163.88853 1146.01517 1129.33722 1114.25971 1101.11649 1091.48966 1082.71355 1074.15830 1066.21556 1059.01762 1053.09633 1047.01133 1040.53139 1034.78525 1029.67579 1024.35379 1018.70579 1012.48026 1003.85245  990.15942  969.84306  945.11639  916.85221  887.32109
  34.00000 1422.21305 1441.53921 1447.63527 1451.65699 1447.93718 1427.05852 1419.62591 1413.30324 1412.73748 1415.83738 1416.24701 1411.17579 1404.64032 1398.48417 1393.20908 1386.28662 1380.60775 1373.87895 1366.26419 1358.53959 1348.23249 1340.59484 1330.42722 1320.26253 1313.00751 1302.04196 1290.08084 1278.64117 1268.14659 1257.37864 1244.95689 1231.06003 1217.77754 1202.21102 1183.44294 1164.98450 1147.13884 1130.49646 1115.37496 1102.30569 1092.73918 1084.01633 1075.50713 1067.61343 1060.46425 1054.58717 1048.54202 1042.09679 1036.37549 1031.28706 1025.98452 1020.35766 1014.15112 1005.54299  991.86415  971.57489  946.94809  918.66058  890.09229
  35.00000 1422.42395 1441.79377 1447.95018 1452.07322 1448.37560 1427.38298 1419.79211 1413.17569 1412.59441 1415.80233 1416.31850 1411.28730 1404.77635 1398.68064 1393.45095 1386.56652 1380.94428 1374.29588 1366.74741 1359.08707 1348.85105 1341.29005 1331.19073 1321.04690 1313.84696 1302.93653 1291.00703 1279.60871 1269.21116 1258.29501 1245.90907 1232.02635 1218.76183 1203.23441 1184.49021 1166.05175 1148.22739 1131.60850 1116.42510 1103.40806 1093.88123 1085.19460 1076.71827 1068.86199 1061.74648 1055.89534 1049.87585 1043.45611 1037.74914 1032.67128 1027.38285 1021.77329 1015.58419 1006.99299  993.32888  973.05830  948.47927  920.06890  892.48633
  36.00000 1422.60573 1441.99244 1448.17815 1452.39592 1448.71841 1427.63735 1419.88019 1412.96673 1412.37679 1415.69110 1416.31089 1411.31374 1404.83597 1398.78979 1393.59851 1386.75683 1381.19683 1374.61311 1367.11468 1359.50247 1349.33773 1341.86365 1331.84598 1321.72812 1314.58402 1303.74917 1291.89032 1280.56663 1270.26763 1259.17275 1246.82350 1232.97303 1219.71739 1204.22963 1185.51249 1167.09731 1149.28880 1132.68207 1117.42284 1104.43655 1094.92879 1086.26154 1077.80508 1069.97463 1062.87754 1057.03359 1051.02508 1044.62135 1038.91804 1033.83995 1028.55994 1022.96357 1016.78987 1008.21194  994.56200  974.30033  949.71498  921.08539  894.47363
  37.00000 1422.77089 1442.15182 1448.33553 1452.64064 1448.97976 1427.83604 1419.90402 1412.68986 1412.09788 1415.51655 1416.23605 1411.26696 1404.83008 1398.82229 1393.66243 1386.86793 1381.37560 1374.84058 1367.37582 1359.79524 1349.70162 1342.32415 1332.40091 1322.31342 1315.22463 1304.48426 1292.73408 1281.51645 1271.31514 1260.01822 1247.70615 1233.90557 1220.64972 1205.20177 1186.51487 1168.12676 1150.32965 1133.72477 1118.38016 1105.40394 1095.89534 1087.23123 1078.78218 1070.96633 1063.87265 1058.01735 1052.00516 1045.60805 1039.89787 1034.80882 1029.53138 1023.94397 1017.78328 1009.21427  995.57695  975.31354  950.66786  921.72940  896.03639
  38.00000 1422.93064 1442.28855 1448.43980 1452.82443 1449.17544 1427.99389 1419.87786 1412.35895 1411.77137 1415.29207 1416.10652 1411.15984 1404.77031 1398.78999 1393.65467 1386.91127 1381.49173 1374.98970 1367.54265 1359.97735 1349.95439 1342.68219 1332.86511 1322.81155 1315.77625 1305.14710 1293.54126 1282.45823 1272.35135 1260.83715 1248.56237 1234.82832 1221.56350 1206.15511 1187.50150 1169.14452 1151.35540 1134.74331 1119.30836 1106.32292 1096.79479 1088.11865 1079.66538 1071.85351 1064.74895 1058.86453 1052.83451 1046.43497 1040.70789 1035.59760 1030.31692 1024.73424 1018.58393 1010.01902  996.39190  976.11567  951.35760  922.03049  897.16852
  39.00000 1423.09500 1442.41924 1448.50939 1452.96570 1449.32266 1428.12606 1419.81624 1411.98817 1411.41124 1415.03147 1415.93538 1411.00612 1404.66891 1398.70577 1393.58839 1386.89931 1381.55725 1375.07321 1367.62887 1360.06317 1350.11011 1342.95042 1333.24969 1323.23278 1316.24792 1305.74399 1294.31461 1283.39085 1273.37289 1261.63484 1249.39707 1235.74463 1222.46276 1207.09330 1188.47578 1170.15410 1152.37061 1135.74368 1120.21810 1107.20603 1097.64145 1088.93951 1080.47152 1072.65388 1065.52522 1059.59530 1053.53422 1047.12378 1041.37059 1036.22952 1030.94003 1025.35802 1019.21528 1010.64942  997.02933  976.72918  951.81035  922.02739  897.87544
  40.00000 1423.27296 1442.56028 1448.56341 1453.08386 1449.43977 1428.24787 1419.73380 1411.59185 1411.03169 1414.74891 1415.73623 1410.82028 1404.53868 1398.58339 1393.47782 1386.84538 1381.58502 1375.10506 1367.64985 1360.06917 1350.18497 1343.14325 1333.56723 1323.58880 1316.65013 1306.28226 1295.05691 1284.31244 1274.37578 1262.41631 1250.21489 1236.65712 1223.35110 1208.01961 1189.44064 1171.15834 1153.37917 1136.73136 1121.11949 1108.06568 1098.44989 1089.71016 1081.21826 1073.38620 1066.22167 1060.23167 1054.12766 1047.69866 1041.91118 1036.73088 1031.42742 1025.84224 1019.70424 1011.13230  997.51547  977.18066  952.05788  921.76665  898.17354
  41.00000 1423.47260 1442.72780 1448.62138 1453.19909 1449.54599 1428.37465 1419.64522 1411.18441 1410.64697 1414.45870 1415.52297 1410.61735 1404.39281 1398.43739 1393.33806 1386.76359 1381.58856 1375.10024 1367.62238 1360.01367 1350.19703 1343.27672 1333.83158 1323.89257 1316.99476 1306.77029 1295.77111 1285.22071 1275.35577 1263.18637 1251.02033 1237.56788 1224.23182 1208.93705 1190.39869 1172.15960 1154.38443 1137.71140 1122.02202 1108.91402 1099.23482 1090.44730 1081.92388 1074.07001 1066.85955 1060.79714 1054.63999 1048.18578 1042.35712 1037.13042 1031.80839 1026.21658 1020.08049 1011.49748  997.87967  977.50013  952.13665  921.30121  898.08958
  42.00000 1423.70127 1442.93745 1448.70301 1453.33200 1449.66108 1428.52152 1419.56501 1410.78019 1410.27130 1414.17521 1415.30970 1410.41277 1404.24483 1398.28286 1393.18489 1386.66860 1381.58188 1375.07454 1367.56440 1359.91646 1350.16585 1343.36814 1334.05766 1324.15815 1317.29494 1307.21744 1296.46048 1286.11322 1276.30878 1263.94975 1251.81782 1238.47864 1225.10809 1209.84855 1191.35240 1173.15997 1155.38944 1138.68858 1122.93457 1109.76287 1100.01087 1091.16779 1082.60692 1074.72526 1067.46076 1061.31619 1055.09764 1048.61272 1042.73743 1037.45870 1032.11415 1026.51269 1020.37581 1011.77703  998.15362  977.72025  952.08684  920.68884  897.65977
  43.00000 1423.96573 1443.20434 1448.82781 1453.50333 1449.80505 1428.70324 1419.50739 1410.39332 1409.91868 1413.91271 1415.11056 1410.22213 1404.10835 1398.13522 1393.03452 1386.57545 1381.57933 1375.04433 1367.49468 1359.79842 1350.11210 1343.43579 1334.26122 1324.40049 1317.56480 1307.63400 1297.12875 1286.98773 1277.23120 1264.71116 1252.61180 1239.39090 1225.98300 1210.75705 1192.30421 1174.16137 1156.39701 1139.66749 1123.86537 1110.62355 1100.79239 1091.88835 1083.28589 1075.37197 1068.04744 1061.81381 1055.52775 1049.00788 1043.08209 1037.74734 1032.37712 1026.76347 1020.62327 1012.00444  998.37062  977.87551  951.95119  919.99046  896.92883
  44.00000 1424.27234 1443.54290 1449.01490 1453.73359 1449.99775 1428.93404 1419.48613 1410.03761 1409.60278 1413.68514 1414.93953 1410.06098 1403.99698 1398.01003 1392.90337 1386.49938 1381.59538 1375.02626 1367.43245 1359.68109 1350.05715 1343.49862 1334.45858 1324.63515 1317.81928 1308.03103 1297.78016 1287.84244 1278.12018 1265.47532 1253.40678 1240.30612 1226.85973 1211.66560 1193.25664 1175.16574 1157.40985 1140.65255 1124.82194 1111.50678 1101.59324 1092.62526 1083.97893 1076.02983 1068.64152 1062.31488 1055.95752 1049.39980 1043.42131 1038.02830 1032.63010 1027.00228 1020.85648 1012.21386  998.56470  978.00133  951.77388  919.26841  895.94881
  45.00000 1424.62723 1443.96670 1449.28266 1454.04274 1450.25862 1429.22739 1419.51435 1409.72637 1409.33673 1413.50602 1414.81025 1409.94457 1403.92410 1397.92270 1392.80776 1386.45554 1381.64438 1375.03700 1367.39704 1359.58626 1350.02260 1343.57581 1334.66630 1324.87802 1318.07388 1308.42026 1298.41957 1288.67626 1278.97397 1266.24695 1254.20733 1241.22574 1227.74150 1212.57741 1194.21241 1176.17509 1158.43067 1141.64811 1125.81100 1112.42249 1102.42649 1093.39404 1084.70340 1076.71780 1069.26420 1062.84370 1056.41361 1049.81653 1043.78479 1038.33308 1032.90546 1027.26209 1021.10867 1012.43917  998.76976  978.13311  951.59933  918.58468  894.77789
  46.00000 1425.03640 1444.48837 1449.64844 1454.44985 1450.60624 1429.59581 1419.60439 1409.47226 1409.13301 1413.38821 1414.73585 1409.88763 1403.90266 1397.88826 1392.76365 1386.45877 1381.74037 1375.09291 1367.40751 1359.53545 1350.02983 1343.68640 1334.90089 1325.14506 1318.34435 1308.81387 1299.05242 1289.48899 1279.79211 1267.03084 1255.01810 1242.15137 1228.63169 1213.49587 1195.17443 1177.19163 1159.46221 1142.65843 1126.83842 1113.37964 1103.30419 1094.20914 1085.47557 1077.45368 1069.93552 1063.42334 1056.92149 1050.28489 1044.20102 1038.69194 1033.23438 1027.57465 1021.41191 1012.71314  999.01869  978.30536  951.47100  917.99920  893.47900
  47.00000 1425.50590 1445.11947 1450.12829 1454.97272 1451.05806 1430.05072 1419.76765 1409.28715 1409.00322 1413.34375 1414.72872 1409.90412 1403.94502 1397.92110 1392.78635 1386.52336 1381.89676 1375.20977 1367.48223 1359.54948 1350.09953 1343.84891 1335.17849 1325.45193 1318.64639 1309.22435 1299.68480 1290.28150 1280.57566 1267.83173 1255.84380 1243.08478 1229.53382 1214.42461 1196.14589 1178.21779 1160.50732 1143.68769 1127.90909 1114.38610 1104.23714 1095.08361 1086.31017 1078.25368 1070.67386 1064.07512 1057.50477 1050.82983 1044.69652 1039.13309 1033.64596 1027.96965 1021.79621 1013.06655  999.34249  978.55072  951.43021  917.56809  892.11845
  48.00000 1426.04193 1445.87030 1450.73663 1455.62758 1451.62999 1430.60224 1420.01439 1409.18193 1408.95800 1413.38365 1414.80033 1410.00695 1404.06270 1398.03467 1392.89023 1386.66275 1382.12617 1375.40239 1367.63849 1359.64798 1350.25121 1344.08089 1335.51447 1325.81371 1318.99536 1309.66420 1300.32337 1291.05589 1281.32730 1268.65436 1256.68913 1244.02795 1230.45152 1215.36744 1197.13025 1179.25627 1161.56895 1144.73996 1129.02691 1115.44840 1105.23456 1096.02875 1087.22010 1079.13205 1071.49545 1064.81801 1058.18461 1051.47376 1045.29514 1039.68199 1034.16648 1028.47393 1022.28876 1013.52734  999.76946  978.89910  951.51498  917.34204  890.76447
  49.00000 1426.65095 1446.74982 1451.48602 1456.42877 1452.33609 1431.25897 1420.35358 1409.16642 1409.00677 1413.51774 1414.96103 1410.20776 1404.26622 1398.24126 1393.08839 1386.88933 1382.44011 1375.68437 1367.89211 1359.84893 1350.50275 1344.39854 1335.92318 1326.24453 1319.40592 1310.14577 1300.97534 1291.81556 1282.05150 1269.50334 1257.55876 1244.98313 1231.38853 1216.32835 1198.13118 1180.31002 1162.65015 1145.81917 1130.19461 1116.57165 1106.30394 1097.05387 1088.21603 1080.10066 1072.41397 1065.66816 1058.97912 1052.23589 1046.01740 1040.36053 1034.81863 1029.11070 1022.91309 1014.11980 1000.32431  979.37680  951.75894  917.36476  889.48574
  50.00000 1427.33973 1447.76551 1452.38688 1457.38837 1453.18825 1432.02788 1420.79277 1409.24912 1409.15765 1413.75448 1415.21984 1410.51666 1404.56485 1398.55169 1393.39245 1387.21410 1382.84875 1376.06773 1368.25704 1360.16818 1350.86990 1344.81629 1336.41750 1326.75725 1319.89170 1310.68098 1301.64837 1292.56529 1282.75454 1270.38310 1258.45721 1245.95279 1232.34863 1217.31142 1199.15257 1181.38225 1163.75406 1146.92905 1131.41375 1117.75932 1107.45071 1098.16594 1089.30610 1081.16867 1073.44008 1066.63835 1059.90280 1053.13169 1046.87982 1041.18644 1035.62082 1029.89882 1023.68838 1014.86386 1001.02748  980.00572  952.19033  917.67157  888.34989
  51.00000 1428.11537 1448.92324 1453.44721 1458.51596 1454.19585 1432.91410 1421.33788 1409.43714 1409.41725 1414.10075 1415.58426 1410.94202 1404.96643 1398.97506 1393.81216 1387.64648 1383.36069 1376.56262 1368.74500 1360.61906 1351.36588 1345.34642 1337.00862 1327.36315 1320.46499 1311.28102 1302.35045 1293.31121 1283.44451 1271.29781 1259.38878 1246.93961 1233.33557 1218.32079 1200.19845 1182.47637 1164.88383 1148.07306 1132.68461 1119.01315 1108.67814 1099.36939 1090.49562 1082.34219 1074.58111 1067.73758 1060.96605 1054.17235 1047.89442 1042.17264 1036.58653 1030.85214 1024.62876 1015.77434 1001.89441  980.80266  952.83107  918.28816  887.42203
  52.00000 1428.98535 1450.22712 1454.67243 1459.81830 1455.36551 1433.92077 1421.99312 1409.73602 1409.79054 1414.56173 1416.06009 1411.49019 1405.47717 1399.51852 1394.35524 1388.19403 1383.98269 1377.17705 1369.36512 1361.21193 1352.00097 1345.99871 1337.70562 1328.07159 1321.13640 1311.95615 1303.08978 1294.06080 1284.13124 1272.25124 1260.35743 1247.94644 1234.35300 1219.36051 1201.27291 1183.59593 1166.04259 1149.25426 1134.00614 1120.33300 1109.98710 1100.66587 1091.78684 1083.62401 1075.84070 1068.97069 1062.17472 1055.36427 1049.06814 1043.32673 1037.72379 1031.97898 1025.74282 1016.86043 1002.93496  981.77871  953.69602  919.22961  886.76336
  53.00000 1429.95741 1451.67940 1456.06511 1461.29909 1456.70078 1435.04895 1422.76081 1410.14960 1410.28071 1415.14072 1416.65125 1412.16535 1406.10147 1400.18703 1395.02704 1388.86220 1384.71949 1377.91658 1370.12363 1361.95383 1352.78212 1346.78009 1338.51525 1328.88970 1321.91452 1312.71536 1303.87459 1294.82277 1284.82618 1273.24669 1261.36668 1248.97623 1235.40432 1220.43446 1202.37994 1184.74452 1167.23332 1150.47529 1135.37592 1121.71680 1111.37595 1102.05410 1093.17875 1085.01337 1077.21856 1070.33806 1063.52982 1056.70879 1050.40256 1044.65054 1039.03470 1033.28164 1027.03305 1018.12518 1004.15294  982.93869  954.79230  920.49949  886.42975
  54.00000 1431.03952 1453.28034 1457.62484 1462.95878 1458.20196 1436.29743 1423.64127 1410.67986 1410.88902 1415.83900 1417.35961 1412.96928 1406.84172 1400.98314 1395.83038 1389.65417 1385.57356 1378.78411 1371.02357 1362.84814 1353.71262 1347.69432 1339.44161 1329.82216 1322.80567 1313.56614 1304.71292 1295.60693 1285.54223 1274.28680 1262.41945 1250.03188 1236.49260 1221.54622 1203.52337 1185.92565 1168.45879 1151.73816 1136.79014 1123.16046 1112.84046 1103.52973 1094.66694 1086.50586 1078.71029 1071.83537 1065.02719 1058.20182 1051.89348 1046.13985 1040.51516 1034.75610 1028.49560 1019.56514 1005.54573  984.28086  956.11888  922.08941  886.47050
  55.00000 1432.23968 1455.02806 1459.34805 1464.79434 1459.86586 1437.66266 1424.63272 1411.32684 1411.61471 1416.65570 1418.18485 1413.90118 1407.69813 1401.90680 1396.76527 1390.57058 1386.54495 1379.77965 1372.06453 1363.89434 1354.79187 1348.74178 1340.48591 1330.87086 1323.81355 1314.51417 1305.61244 1296.42393 1286.29343 1275.37346 1263.51791 1251.11622 1237.62042 1222.69890 1204.70667 1187.14261 1169.72137 1153.04419 1138.24361 1124.65788 1114.37373 1105.08529 1096.24352 1088.09328 1080.30730 1073.45350 1066.65741 1059.83374 1053.53087 1047.78417 1042.15461 1036.39177 1030.11997 1021.17017 1007.10410  985.79665  957.66628  923.97876  886.92707
  56.00000 1433.56575 1456.91849 1461.22793 1466.79910 1461.68566 1439.13868 1425.73117 1412.08850 1412.45488 1417.58768 1419.12433 1414.95758 1408.66865 1402.95521 1397.82883 1391.60940 1387.63108 1380.90012 1373.24247 1365.08776 1356.01511 1349.91921 1341.64629 1332.03476 1324.93906 1315.56310 1306.58016 1297.28507 1287.09470 1276.50766 1264.66337 1252.23179 1238.78972 1223.89498 1205.93281 1188.39830 1171.02291 1154.39384 1139.72978 1126.20097 1115.96626 1106.71024 1097.89717 1089.76365 1081.99677 1075.17849 1068.40574 1061.58935 1055.29875 1049.56674 1043.93605 1038.17149 1031.88905 1022.92335 1008.81210  987.47063  959.41654  926.13478  887.83210
  57.00000 1435.02521 1458.94517 1463.25432 1468.96268 1463.65080 1440.71704 1426.93033 1412.96062 1413.40440 1418.62946 1420.17296 1416.13216 1409.74874 1404.12264 1399.01504 1392.76575 1388.82666 1382.13921 1374.54958 1366.41945 1357.37331 1351.21959 1342.91760 1333.30967 1326.17999 1316.71422 1307.62215 1298.20189 1287.96132 1277.68929 1265.85607 1253.38069 1240.00164 1225.13612 1207.20401 1189.69507 1172.36458 1155.78657 1141.24079 1127.77969 1117.60599 1108.39098 1099.61317 1091.50135 1083.76179 1076.99166 1070.25225 1063.44799 1057.17533 1051.46463 1045.83610 1040.07164 1033.77919 1024.80114 1010.64722  989.28065  961.34342  928.51303  889.20842
  58.00000 1436.62474 1461.09920 1465.41367 1471.27090 1465.74688 1442.38673 1428.22159 1413.93673 1414.45585 1419.77312 1421.32311 1417.41568 1410.93135 1405.40038 1400.31472 1394.03183 1390.12355 1383.48730 1375.97415 1367.87608 1358.85309 1352.63202 1344.29135 1334.68809 1327.53091 1317.96628 1308.74326 1299.18584 1288.90856 1278.91702 1267.09504 1254.56441 1241.25632 1226.42297 1208.52158 1191.03444 1173.74667 1157.22068 1142.76758 1129.38221 1119.27847 1110.11109 1101.37364 1093.28729 1085.58155 1078.86984 1072.17206 1065.38375 1059.13333 1053.44900 1047.82533 1042.06241 1035.76053 1026.77364 1012.58069  991.19818  963.41286  931.05827  891.06833
  59.00000 1438.36994 1463.36913 1467.68907 1473.70577 1467.95568 1444.13421 1429.59393 1415.00803 1415.59946 1421.00827 1422.56459 1418.79596 1412.20678 1406.77662 1401.71544 1395.39677 1391.51069 1384.93137 1377.50062 1369.43998 1360.43673 1354.14171 1345.75559 1336.15918 1328.98297 1319.31522 1309.94674 1300.24774 1289.95100 1280.18813 1268.37793 1255.78364 1242.55271 1227.75496 1209.88569 1192.41693 1175.16837 1158.69314 1144.30004 1130.99508 1120.96705 1111.85155 1103.15779 1095.09921 1087.43169 1080.78576 1074.13572 1067.36599 1061.14034 1055.48566 1049.86877 1044.10836 1037.79749 1028.80516 1014.57801  993.18889  965.58372  933.70570  893.41297
  60.00000 1440.26474 1465.74081 1470.06030 1476.24549 1470.25517 1445.94343 1431.03392 1416.16334 1416.82309 1422.32202 1423.88454 1420.25782 1413.56266 1408.23648 1403.20148 1396.84663 1392.97408 1386.45502 1379.10955 1371.08924 1362.10230 1355.73004 1347.29491 1337.70866 1330.52380 1320.75397 1311.23388 1301.39728 1291.10193 1281.49833 1269.70078 1257.03798 1243.88838 1229.13007 1211.29505 1193.84175 1176.62754 1160.19944 1145.82714 1132.60347 1122.65324 1113.59113 1104.94233 1096.91212 1089.28478 1082.70858 1076.10984 1069.35985 1063.15958 1057.53567 1051.92658 1046.16911 1039.84953 1030.85494 1016.59967  995.21346  967.80884  936.38274  896.23200
  61.00000 1442.31092 1468.19733 1472.50390 1478.86461 1472.61960 1447.79581 1432.52572 1417.38907 1418.11222 1423.69897 1425.26747 1421.78313 1414.98391 1409.76198 1404.75389 1398.36440 1394.49679 1388.03854 1380.77783 1372.79786 1363.82381 1357.37466 1348.89050 1339.31888 1332.13748 1322.27224 1312.60366 1302.64241 1292.37255 1282.84159 1271.05794 1258.32572 1245.25931 1230.54458 1212.74672 1195.30653 1178.12049 1161.73337 1147.33717 1134.19146 1124.31707 1115.30680 1106.70197 1098.69884 1091.11092 1084.60456 1078.05781 1071.32710 1065.15066 1059.55635 1053.95504 1048.20029 1041.87209 1032.87813 1018.60219  997.22867  970.03640  939.01127  899.50345
  62.00000 1444.50744 1470.71895 1474.99336 1481.53414 1475.01971 1449.67041 1434.05111 1418.66919 1419.44998 1425.12131 1426.69529 1423.35091 1416.45274 1411.33213 1406.35059 1399.93000 1396.05903 1389.65898 1382.47884 1374.53610 1365.57160 1359.04975 1350.52028 1340.96886 1333.80451 1323.85638 1314.05225 1303.98859 1293.77115 1284.20995 1272.44178 1259.64357 1246.65963 1231.99285 1214.23577 1196.80700 1179.64172 1163.28690 1148.81802 1135.74245 1125.93756 1116.97436 1108.41009 1100.43073 1092.87853 1086.43801 1079.94077 1073.22716 1067.07073 1061.50233 1055.90768 1050.15477 1043.81782 1034.82705 1020.53935  999.18869  972.21172  941.51037  903.19377
  63.00000 1446.84970 1473.28296 1477.49929 1484.22178 1477.42290 1451.54393 1435.58953 1419.98525 1420.81717 1426.56879 1428.14730 1424.93737 1417.94871 1412.92306 1407.96646 1401.52042 1397.63822 1391.29039 1384.18278 1376.27088 1367.31270 1360.72630 1352.15910 1342.63451 1335.50189 1325.48922 1315.57263 1305.43807 1295.30215 1285.59340 1273.84258 1260.98634 1248.08141 1233.46702 1215.75498 1198.33666 1181.18358 1164.84996 1150.25748 1137.23961 1127.49338 1118.56910 1110.03946 1102.07848 1094.55529 1088.17228 1081.71881 1075.01829 1068.87572 1063.32701 1057.73673 1051.98410 1045.63806 1036.65273 1022.36373 1001.04683  974.27933  943.79966  907.25829
  64.00000 1449.32874 1475.86362 1479.98973 1486.89221 1479.79356 1453.39097 1437.11818 1421.31641 1422.19239 1428.01891 1429.60038 1426.51619 1419.44877 1414.50816 1409.57364 1403.10983 1399.20918 1392.90404 1385.85707 1377.96627 1369.01140 1362.37257 1353.77900 1344.28877 1337.20326 1327.14999 1317.15408 1306.98897 1296.96503 1286.97964 1275.24833 1262.34660 1249.51442 1234.95676 1217.29454 1199.88643 1182.73605 1166.41022 1151.64361 1138.66639 1128.96349 1120.06664 1111.56318 1103.61314 1096.10924 1089.77107 1083.35230 1076.65909 1070.52199 1064.98422 1059.39487 1053.64030 1047.28465 1038.30669 1024.02855 1002.75740  976.18549  945.80323  911.64182
  65.00000 1451.93027 1478.43210 1482.43047 1489.50744 1482.09349 1455.18412 1438.61212 1422.63949 1423.55210 1429.44703 1431.02906 1428.05866 1420.92745 1416.05834 1411.14172 1404.66977 1400.74434 1394.46878 1387.46685 1379.58424 1370.62996 1363.95458 1355.34959 1345.90203 1338.87906 1328.81422 1318.78164 1308.63438 1298.75322 1288.35397 1276.64454 1263.71438 1250.94587 1236.44900 1218.84169 1201.44422 1184.28636 1167.95300 1152.96520 1140.00721 1130.32796 1121.44390 1112.95577 1105.00727 1097.51009 1091.19994 1084.80356 1078.11018 1071.96806 1066.43015 1060.83721 1055.07787 1048.71194 1039.74309 1025.48981 1004.27807  977.88117  947.45419  916.27964
  66.00000 1454.63371 1480.95642 1484.78541 1492.02728 1484.28226 1456.89424 1440.04439 1423.92904 1424.87079 1430.82652 1432.40569 1429.53400 1422.35693 1417.54232 1412.63813 1406.16946 1402.21402 1395.95146 1388.97561 1381.08534 1372.12939 1365.43676 1356.83849 1347.44243 1340.49684 1330.45370 1320.43565 1310.36127 1300.65275 1289.69909 1278.01407 1265.07674 1252.36018 1237.92763 1220.38035 1202.99460 1185.81871 1169.46099 1154.21226 1141.24811 1131.56894 1122.68017 1114.19436 1106.23628 1098.73071 1092.42795 1086.03873 1079.33620 1073.17681 1067.62561 1062.02360 1056.25618 1049.87926 1040.92119 1026.70875 1005.57249  979.32540  948.69982  921.09886
  67.00000 1457.41098 1483.40133 1487.01710 1494.40985 1486.31788 1458.49070 1441.38621 1425.15748 1426.12115 1432.12904 1433.70070 1430.90971 1423.70732 1418.92700 1414.02857 1407.57607 1403.58678 1397.31739 1390.34591 1382.42976 1373.47044 1366.78276 1358.21190 1348.87642 1342.02161 1332.03654 1322.09110 1312.14939 1302.64096 1290.99495 1279.33700 1266.41743 1253.73866 1239.37320 1221.89078 1204.51827 1187.31388 1170.91412 1155.37654 1142.37761 1132.67171 1123.75838 1115.26010 1107.27992 1099.74881 1093.42969 1087.02990 1080.30803 1074.11780 1068.53858 1062.92131 1057.14215 1050.75361 1041.80812 1027.65470 1006.61334  980.48916  949.50752  926.02003
  68.00000 1460.22528 1485.72834 1489.08721 1496.61216 1488.15735 1459.94171 1442.60721 1426.29521 1427.27427 1433.32476 1434.88286 1432.15197 1424.94690 1420.17787 1415.27750 1408.85514 1404.82980 1398.53102 1391.54026 1383.57832 1374.61470 1367.95627 1359.43527 1350.16929 1343.41624 1333.52718 1323.71711 1313.97000 1304.68494 1292.21862 1280.59039 1267.71641 1255.05933 1240.76261 1223.34917 1205.99170 1188.74890 1172.28934 1156.45225 1143.38761 1133.62586 1124.66653 1116.13972 1108.12404 1100.54892 1094.18738 1087.75748 1081.00538 1074.77002 1069.14712 1063.50794 1057.71330 1051.31274 1042.38208 1028.30826 1007.38567  981.35967  949.87141  930.95918
  69.00000 1463.02973 1487.89561 1490.95720 1498.59084 1489.75742 1461.21466 1443.67561 1427.31078 1428.29993 1434.38269 1435.91958 1433.22613 1426.04238 1421.25956 1416.34871 1409.97103 1405.90940 1399.55654 1392.52207 1384.49379 1375.52589 1368.92213 1360.47400 1351.28590 1344.64206 1334.88650 1325.27626 1315.78459 1306.73994 1293.34410 1281.74820 1268.94949 1256.29657 1242.06883 1224.72724 1207.38657 1190.09665 1173.56048 1157.43666 1144.27443 1134.42665 1125.39924 1116.82728 1108.76244 1101.12445 1094.69342 1088.21297 1081.41954 1075.12494 1069.44257 1063.77484 1057.96115 1051.54860 1042.63586 1028.66485 1007.89076  981.94534  949.81967  935.83033
  70.00000 1465.76588 1489.85794 1492.58898 1500.30292 1491.07542 1462.27651 1444.55856 1428.17109 1429.16684 1435.27105 1436.77726 1434.09726 1426.95932 1422.13638 1417.20605 1410.88748 1406.79158 1400.35875 1393.25679 1385.14226 1376.17132 1369.64743 1361.29440 1352.19146 1345.65943 1336.07199 1326.72398 1317.54339 1308.74763 1294.34223 1282.78111 1270.08778 1257.42091 1243.26056 1225.99184 1208.66933 1191.32544 1174.69805 1158.33097 1145.03994 1135.07647 1125.95951 1117.32613 1109.19904 1101.48011 1094.95305 1088.40190 1081.55663 1075.18980 1069.43317 1063.73072 1057.89499 1051.47119 1042.58077 1028.73869 1008.15034  982.28110  949.42272  940.54825
  71.00000 1468.36204 1491.56674 1493.94571 1501.70671 1492.07021 1463.09430 1445.22244 1428.84164 1429.84303 1435.95765 1437.42176 1434.73077 1427.66251 1422.77303 1417.81412 1411.56818 1407.44265 1400.90392 1393.71318 1385.49474 1376.52352 1370.10289 1361.86461 1352.85243 1346.42848 1337.03793 1328.00785 1319.18384 1310.63419 1295.18057 1283.65639 1271.09725 1258.39870 1244.30192 1227.10448 1209.80062 1192.39869 1175.66908 1159.14115 1145.69279 1135.58652 1126.36065 1117.65105 1109.45018 1101.63456 1094.98738 1088.34714 1081.44102 1074.99141 1069.14801 1063.40581 1057.54609 1051.11281 1042.25097 1028.56719 1008.21125  982.43437  948.80221  945.03185
  72.00000 1470.73159 1492.97000 1494.99265 1502.76281 1492.70319 1463.63561 1445.63322 1429.28679 1430.29619 1436.41040 1437.81887 1435.09311 1428.11647 1423.13532 1418.13922 1411.97750 1407.82998 1401.16081 1393.86469 1385.52894 1376.56202 1370.26431 1362.15580 1353.23756 1346.90997 1337.73570 1329.06689 1320.62899 1312.30839 1295.82322 1284.33776 1271.93822 1259.19191 1245.15215 1228.02094 1210.73475 1193.27438 1176.43698 1159.87887 1146.24984 1135.97857 1126.62843 1117.83062 1109.54722 1101.62321 1094.83669 1088.09256 1081.11918 1074.58019 1068.64140 1062.85636 1056.97225 1050.53264 1041.70828 1028.21575 1008.15057  982.51162  948.14083  949.20786
  73.00000 1472.77106 1494.01230 1495.69813 1503.43516 1492.93948 1463.86913 1445.75690 1429.47004 1430.49411 1436.59776 1437.93480 1435.15260 1428.28594 1423.19104 1418.15023 1412.08127 1407.92277 1401.10179 1393.69107 1385.23124 1376.27540 1370.11423 1362.14333 1353.31902 1347.06621 1338.11406 1329.83085 1321.78567 1313.65939 1296.23080 1284.78533 1272.56481 1259.75777 1245.76523 1228.69075 1211.41911 1193.90473 1176.96132 1160.56255 1146.73762 1136.28693 1126.80332 1117.90976 1109.53933 1101.50146 1094.56408 1087.70695 1080.66385 1074.03464 1067.99764 1062.16947 1056.26284 1049.82193 1041.04737 1027.78305 1008.08127  982.66554  947.69304  953.01513
  74.00000 1474.35811 1494.63478 1496.03460 1503.69230 1492.74916 1463.76528 1445.55991 1429.35442 1430.40515 1436.48941 1437.73685 1434.88021 1428.13653 1422.91087 1417.81974 1411.84766 1407.69296 1400.70413 1393.18003 1384.59879 1375.66346 1369.64371 1361.80821 1353.07370 1346.86211 1338.11959 1330.21945 1322.54267 1314.55449 1296.36033 1284.95544 1272.92436 1260.04856 1246.08961 1229.05677 1211.79360 1194.23567 1177.19777 1161.21848 1147.19399 1136.56061 1126.94311 1117.95256 1109.49653 1101.34806 1094.25932 1087.28840 1080.17862 1073.46620 1067.33615 1061.46856 1055.54426 1049.10944 1040.40147 1027.40675 1008.15825  983.10273  947.79667  956.40932
  75.00000 1475.34933 1494.77519 1495.97973 1503.50863 1492.10870 1463.29690 1445.00964 1428.90283 1429.99878 1436.05678 1437.19403 1434.25063 1427.63536 1422.26944 1417.12521 1411.24810 1407.11624 1399.95132 1392.32918 1383.64193 1374.73967 1368.85436 1361.13860 1352.48460 1346.26641 1337.69711 1330.14157 1322.76871 1314.83672 1296.16516 1284.80064 1272.95691 1260.01131 1246.06787 1229.05471 1211.78996 1194.20641 1177.09792 1161.88209 1147.66990 1136.86564 1127.12554 1118.04531 1109.51302 1101.26884 1094.04318 1086.96893 1079.80283 1073.02450 1066.81715 1060.91903 1054.98583 1048.56752 1039.94849 1027.26972 1008.58501  984.09223  948.88557  959.36821
  76.00000 1475.57793 1494.36785 1495.51771 1502.86591 1491.00243 1462.43999 1444.07500 1428.07848 1429.24614 1435.27385 1436.27780 1433.24325 1426.75179 1421.24644 1416.05024 1410.25840 1406.17312 1398.83461 1391.14808 1382.38675 1373.53378 1367.76045 1360.13148 1351.54240 1345.25292 1336.79026 1329.49446 1322.31035 1314.32227 1295.59492 1284.26957 1272.59452 1259.58754 1245.63638 1228.61259 1211.33116 1193.74892 1176.60914 1162.59918 1148.23132 1137.28752 1127.45134 1118.29978 1109.71073 1101.40074 1094.07199 1086.91961 1079.71694 1072.90310 1066.64773 1060.73467 1054.80623 1048.41852 1039.91771 1027.60679 1009.62078  985.97455  951.50313  961.89750
  77.00000 1474.85125 1493.34374 1494.64058 1501.75474 1489.42421 1461.17447 1442.72696 1426.84537 1428.12067 1434.11782 1434.96287 1431.84331 1425.45824 1419.82788 1414.58603 1408.85988 1404.85013 1397.35463 1389.66046 1380.87785 1372.09468 1366.39134 1358.79449 1350.24715 1343.80203 1335.34205 1328.16288 1320.98978 1312.79781 1294.59549 1283.30697 1271.76071 1258.71299 1244.72498 1227.65026 1210.33070 1192.78752 1175.67454 1163.42745 1148.96129 1137.93398 1128.04733 1118.85672 1110.24318 1101.91607 1094.54265 1087.35593 1080.14822 1073.34555 1067.08834 1061.18426 1055.28037 1048.94187 1040.59696 1028.71191 1011.58823  989.17148  956.31687  964.03715
  78.00000 1472.94812 1491.63051 1493.34966 1500.17632 1487.37917 1459.48509 1440.93928 1425.16878 1426.59879 1432.57000 1433.22809 1430.04317 1423.73107 1418.00741 1412.73283 1407.04065 1403.14111 1395.52319 1387.90668 1379.18137 1370.49349 1364.79400 1357.14791 1348.61010 1341.90221 1333.29561 1326.01824 1318.60239 1310.01758 1293.10898 1281.85360 1270.36974 1257.31735 1243.25664 1226.07892 1208.69198 1191.23827 1174.23279 1164.43793 1149.96213 1138.93785 1129.06989 1119.88971 1111.29960 1103.02721 1095.69786 1088.54373 1081.37699 1074.65200 1068.45984 1062.59895 1056.74677 1050.48148 1042.34029 1030.94601 1014.88174  994.19663  964.13412  965.86840
  79.00000 1469.61603 1489.15253 1491.65710 1498.14418 1484.88567 1457.36234 1438.68912 1423.01585 1424.66066 1430.61670 1431.05738 1427.84366 1421.55152 1415.78779 1410.50168 1404.79696 1401.04859 1393.36518 1385.94632 1377.38829 1368.82690 1363.03574 1355.22680 1346.65575 1339.55181 1330.59490 1322.91769 1314.91434 1305.70045 1291.07375 1279.84631 1268.32601 1255.32401 1241.14719 1223.80053 1206.30749 1189.00855 1172.21809 1165.71672 1151.35786 1140.46012 1130.70857 1121.60916 1113.10936 1104.99152 1097.83189 1090.80541 1083.74316 1077.18627 1071.15103 1065.37990 1059.61550 1053.45386 1045.57624 1034.74526 1019.97623 1001.66666  975.91867  967.52131
  80.00000 1464.56816 1485.83098 1489.58760 1495.68621 1481.97733 1454.80346 1435.95787 1420.35616 1422.29098 1428.25016 1428.44076 1425.25550 1418.90679 1413.18246 1407.91615 1402.13472 1398.58537 1390.92068 1383.86102 1375.61784 1367.22073 1361.20724 1353.08334 1344.42394 1336.76083 1327.18561 1318.70321 1309.65992 1299.52665 1288.42442 1277.21797 1265.52327 1252.64982 1238.30494 1220.70734 1203.05817 1185.99645 1169.56008 1167.36666 1153.29666 1142.69333 1133.18999 1124.26666 1115.94666 1108.11666 1101.29666 1094.52666 1087.65332 1081.38332 1075.62666 1070.00666 1064.37666 1058.35665 1050.81666 1040.62999 1027.43666 1012.31332  992.80865  969.18298
  81.00000 1142.60471 1135.01924 1051.61696 1047.87587 1064.85605 1102.73240 1092.85711 1081.67227 1149.33550 1148.40668 1066.26850 1140.98319 1144.26810 1129.84868 1139.48539 1141.64828 1139.49471 1137.35400 1130.27606 1126.07639 1123.39704 1126.72022 1127.32043 1122.87782 1118.20224 1116.60361 1117.98160 1116.89286 1109.85094 1100.93755 1093.95390 1091.87621 1082.21148 1072.37378 1063.56858 1050.04957 1040.07410 1033.10928 1023.15907 1014.05344 1008.66207 1002.09149  995.68568 1023.26821 1009.74858  993.24550  977.90918 1017.14826  999.29280  986.64820  965.64985  956.89572  952.44172  953.30713  947.35272  941.12555  932.08345  890.67686  864.13567
  82.00000 1044.14550 1032.17292  994.63709  993.43801 1019.89421 1059.99456 1037.86346 1028.02288 1063.79264 1061.30607 1012.98947 1050.70812 1054.03162 1076.26932 1054.26825 1058.25091 1054.98501 1054.23078 1046.43917 1044.83090 1042.25620 1048.29901 1051.78655 1046.70018 1045.02351 1044.78557 1047.82997 1046.84338 1042.73723 1035.48318 1029.05203 1026.83716 1018.54672 1010.73204 1030.85601 1012.39791  993.06068  987.77994  974.21107  966.36539  962.72827  956.90648  951.09682  983.53598  970.14815  951.75579  934.80391  969.36975  952.11072  940.22797  918.60181  910.56790  906.21205  905.37626  900.18887  894.85817  886.60194  847.05422  825.92800
  83.00000  971.12108  957.57056  947.34419  947.95541  980.34650 1021.91495  992.16356  983.47210  998.97596  995.87260  969.15535  984.26392  987.59615 1029.94571  990.53925  995.41890  991.87758  992.01668  984.42980  984.40760  982.37024  989.83602  994.90266  989.70825  989.81154  990.39146  994.36990  993.50742  991.14054  984.97589  978.96158  976.65236  969.30538  962.81799 1000.98595  979.18942  954.07347  949.84939  934.43331  927.48168  924.87912  919.59103  914.21827  948.52213  935.48316  916.22883  898.68611  928.58900  912.18609  901.08440  879.85898  872.48932  868.20354  866.08337  861.29015  856.30193  848.23751  810.72133  792.96042
  84.00000  916.50013  902.93339  907.91586  909.79014  945.48498  987.92048  953.99120  946.28361  949.44790  946.27899  932.88625  934.87624  938.20136  989.79705  942.44903  947.67066  944.32286  945.03262  938.11823  939.03972  937.72221  945.82743  951.66468  946.66330  947.77040  948.82192  953.27328  952.54506  951.14787  945.69251  940.00072  937.63232  930.93339  925.30254  973.69155  949.84189  921.59503  917.97930  901.92771  895.60259  893.53584  888.62246  883.56693  917.61561  905.07799  885.71534  868.29572  893.69134  878.29779  867.96477  847.79935  841.02914  836.79147  833.70454  829.05125  824.03567  815.76793  780.33801  764.45751
  85.00000  875.19926  862.41404  874.87402  877.60528  914.68020  957.50904  921.91757  915.05413  911.20114  908.26907  902.67824  897.70062  901.01128  954.90424  905.74413  910.98913  908.07361  909.14546  903.09974  904.56107  904.00211  912.29064  918.41438  913.76022  915.38737  916.69456  921.33701  920.74596  919.83540  914.83955  909.40503  907.00603  900.75446  895.66579  948.73108  923.84977  894.39578  891.07425  875.19026  869.29746  867.42899  862.77374  857.94597  890.28475  878.34986  859.41776  842.60078  863.74019  849.43087  839.83278  821.11881  814.88013  810.67341  806.86119  802.17985  796.90116  788.18158  754.81131  739.75888
  86.00000  843.54335  831.88241  847.01986  850.30954  887.38781  930.24076  894.78678  888.64952  881.28241  878.73412  877.32808  869.27272  872.56646  924.48570  877.33157  882.43048  880.04599  881.34713  876.20919  877.96182  878.12258  886.34369  892.47739  888.23522  890.08955  891.52190  896.19056  895.73534  895.01841  890.32104  885.09884  882.69230  876.75323  872.00037  925.88558  900.77398  871.47941  868.23769  853.02920  847.42901  845.53787  841.05607  836.38961  866.06699  854.79606  836.66601  820.75611  837.94862  824.74166  815.83112  798.76881  792.99445  788.80528  784.45082  779.63557  773.95446  764.64121  733.24989  718.30212
  87.00000  818.87540  808.42132  823.38107  827.01216  863.13706  905.73024  871.66375  866.15319  857.51517  855.40352  855.87315  847.11510  850.39216  897.87676  854.96220  859.83735  858.00087  859.44835  855.17211  857.06749  857.87205  865.90115  871.89859  868.08078  869.99241  871.47459  876.07952  875.75647  875.06442  870.56431  865.52368  863.12803  857.41205  852.86251  904.95669  880.23327  852.03858  848.73577  834.50021  829.09318  827.04177  822.67265  818.11848  844.55985  833.98293  816.89706  802.06954  815.65543  803.52893  795.25058  779.90631  774.53214  770.35012  765.59178  760.58083  754.42621  744.45387  714.92683  699.60824
  88.00000  799.27439  789.97025  803.16901  806.98601  841.52087  883.63987  851.79197  846.82429  838.29533  836.61876  837.54326  829.45603  832.71797  874.51223  837.00047  841.62869  840.31241  841.85575  838.35404  840.30709  841.66630  849.45388  855.24863  851.83872  853.71557  855.20728  859.70548  859.50982  858.75362  854.38936  849.50933  847.13922  841.58805  837.15935  885.76476  861.89652  835.41908  831.96786  818.85502  813.57126  811.28078  806.98135  802.50366  825.41317  815.53640  799.63789  785.97417  796.30505  785.20979  777.50444  763.85347  758.81989  754.63697  749.57897  744.34136  737.68939  727.04600  699.24930  683.26933
  89.00000  783.35143  775.07371  785.74403  789.63755  822.18720  863.67383  834.55942  830.06407  822.44064  821.16839  821.72222  815.02843  818.27737  853.91142  822.25698  826.64582  825.80005  827.40961  824.58044  826.54559  828.37046  835.90978  841.48252  838.44984  840.24794  841.73051  846.10744  846.03403  845.17448  840.91080  836.17714  833.84409  828.42060  824.06365  868.14702  845.47620  821.09081  817.44233  805.50067  800.29191  797.72429  793.46472  789.03761  808.32225  799.13379  784.49103  772.00571  779.43067  769.29974  762.10733  750.06529  745.31797  741.12794  735.84849  730.37430  723.23298  711.94290  685.73383  668.93797
  90.00000  770.10231  762.70361  770.58731  774.48228  804.83160  845.57296  819.47096  815.38856  809.07973  808.16749  807.91701  802.92613  806.16425  835.66559  809.86676  814.03954  813.60654  815.26584  813.00723  814.96294  817.17150  824.47853  829.83626  827.14475  828.84890  830.31658  834.57418  834.61791  833.64588  829.46427  824.86733  822.58035  817.26156  812.94920  851.95604  830.72260  808.62420  804.75677  793.96731  788.80096  785.94562  781.70574  777.31075  793.02202  784.49674  771.12254  759.78389  764.64006  755.39606  748.65771  738.10356  733.59372  729.39183  723.94938  718.24261  710.64045  698.75165  673.98612  656.31829
  91.00000  758.80091  752.13363  757.27799  761.12467  789.19077  829.11018  806.12596  802.40658  797.57035  796.96964  795.73314  792.50098  795.73034  819.42710  799.20076  803.18745  803.10938  804.81004  803.02778  804.96661  807.48699  814.58816  819.75127  817.36452  818.97590  820.43026  824.57924  824.73533  823.65880  819.55124  815.08449  812.85052  807.62283  803.34198  837.05829  817.41888  797.67113  793.58181  783.88261  778.73730  775.60169  771.36837  766.99254  779.28181  771.38513  759.25183  748.99726  751.60364  743.16398  736.82340  727.61590  723.30029  719.08294  713.52096  707.59442  699.57231  687.14705  663.68456  645.15831
  92.00000  748.92216  742.85068  745.47471  749.24184  775.03701  814.08657  794.20030  790.80192  787.43906  787.10257  784.85496  783.28941  786.51179  804.90034  789.80146  793.63335  793.85648  795.59497  794.20609  796.12846  798.89963  805.82471  810.81911  808.70313  810.23149  811.67788  815.73298  815.99702  814.83286  810.79761  806.45657  804.28095  799.13681  794.88314  823.33279  805.37670  787.94953  783.64784  774.95152  769.81388  766.41662  762.18175  757.81623  766.90093  759.59183  748.64315  739.39073  740.04448  732.32523  726.32955  718.31899  714.15964  709.92411  704.27478  698.14644  689.75186  676.85991  654.56688  635.24342
  93.00000  740.08635  734.49223  734.90056  738.57018  762.17339  800.32779  783.43169  780.31899  778.33686  778.22127  775.02989  774.95980  778.17668  791.83387  781.33609  785.04284  785.51953  787.29506  786.22878  788.13910  791.11041  797.88852  802.74111  800.86557  802.32450  803.76985  807.74695  808.11497  806.88378  802.92265  798.70420  796.59093  791.52665  787.30101  810.66995  794.43252  779.23078  774.73416  766.94021  761.80247  758.16855  753.92763  749.56652  755.70478  748.93815  739.09840  730.75536  729.72989  722.64850  716.94880  709.98502  705.94886  701.69313  695.98010  689.67057  680.95355  667.66742  646.41916  626.39084
  94.00000  732.01885  726.80208  725.33088  728.89449  750.42959  787.68113  773.60791  770.75115  770.00646  770.07362  766.05581  767.27488  770.48747  780.01387  773.56255  777.17077  777.86004  779.67327  778.87057  780.77490  783.90507  790.56271  795.29887  793.63751  795.04159  796.49316  800.40761  800.87607  799.59908  795.71567  791.61755  789.56960  784.58382  780.38993  798.97051  784.44431  771.32963  766.66012  759.66337  754.52162  750.67907  746.43007  742.06967  745.54140  739.26996  730.45112  722.92001  720.46434  713.94151  708.49304  702.43076  698.48923  694.21185  688.45240  681.98316  672.99355  659.38516  639.06691  618.44490
  95.00000  724.52100  719.59916  716.58343  720.03906  739.65830  776.01276  764.55721  761.93135  762.25812  762.47538  757.77094  760.06488  763.27412  769.25848  766.30472  769.83741  770.70476  772.55700  771.96949  773.87426  777.13004  783.69023  788.33264  786.86319  788.22642  789.69106  793.55688  794.12263  792.81993  789.01852  785.03904  783.05855  778.15123  773.99418  788.14454  775.28870  764.09592  759.27784  752.97415  747.82706  743.80471  739.54728  735.18543  736.27861  730.45426  722.56144  715.74450  712.08351  706.04440  700.80663  695.50890  691.63746  687.33741  681.54405  674.93631  665.72198  651.86046  632.36783  611.27303
  96.00000  717.44905  712.75546  708.51035  711.86040  729.73213  765.20542  756.14057  753.72451  754.95192  755.29186  750.04581  753.20830  756.41489  759.41304  759.43443  762.91094  763.92781  765.82055  765.40906  767.32032  770.67524  777.15737  781.72554  780.42938  781.76440  783.24822  787.07768  787.73790  786.42760  782.71251  778.85029  776.93874  772.11057  767.99583  778.11060  766.85858  757.40799  752.46626  746.75613  741.60407  737.43008  733.16499  728.80061  727.80136  722.37635  715.31184  709.11398  704.44935  698.82430  693.76079  689.10093  685.27868  680.95525  675.13698  668.41093  659.01668  644.96693  626.20582  604.76230
  97.00000  710.69897  706.18041  700.99166  704.24137  720.54087  755.15635  748.24551  746.02141  747.98462  748.42458  742.77677  746.61812  749.82259  750.34597  752.85839  756.29468  757.43771  759.37234  759.10549  761.02857  764.46171  770.88175  775.39207  774.25379  775.57156  777.07975  780.88330  781.63549  780.33332  776.70851  772.96237  771.12072  766.37267  762.30559  768.79490  759.06089  751.16718  746.12626  740.91706  735.76142  731.46236  727.19105  722.82384  720.00958  714.93726  708.60354  702.93439  697.44582  692.17073  687.24897  683.11157  679.32073  674.97352  669.13670  662.31112  652.77805  638.59997  620.48618  598.81655
  98.00000  704.19543  699.80995  693.93000  697.08627  711.98920  745.77552  740.78093  738.73372  741.28004  741.80153  735.88085  740.23202  743.43473  741.94540  746.50866  749.91767  751.16792  753.14565  752.99849  754.93787  758.43281  764.80369  769.26964  768.27656  769.58627  771.12316  774.90951  775.75141  774.47068  770.93959  767.30844  765.53728  760.87036  756.85583  760.13060  751.81483  745.29356  740.17669  735.38378  730.22657  725.82691  721.55122  717.18135  712.81617  708.05163  702.35355  697.12866  690.97544  685.99185  681.18300  677.46415  673.68976  669.31854  663.46764  656.55962  646.92488  632.67295  615.13167  593.35385
  99.00000  697.88384  693.59869  687.24634  690.31697  703.99468  736.98401  733.67308  731.78998  734.78195  735.36997  729.29160  734.00532  737.20652  734.11612  740.33574  743.72784  745.07006  747.09180  747.04462  749.00397  752.54789  758.87990  763.31240  762.45412  763.76337  765.33242  769.10869  770.03827  768.79002  765.35550  761.83829  760.13785  755.55300  751.59530  752.05714  745.05021  739.72232  734.55112  730.09832  724.94181  720.46367  716.18561  711.81360  706.14534  701.64578  696.49212  691.63365  684.95625  680.21130  675.48993  672.09703  668.32648  663.93121  658.06931  651.09421  641.39097  627.11417  610.07925  588.30444
 100.00000  691.72464  687.51444  680.87656  683.86961  696.48597  728.71268  726.86226  725.13239  728.44878  729.09130  722.95582  727.90596  731.10579  726.77718  734.30355  737.68694  739.10890  741.17531  741.21261  743.19482  746.77775  753.07900  757.48676  756.75477  758.06967  759.67360  763.44556  764.46094  763.25416  759.91845  756.51414  754.88444  750.38241  746.48516  744.51969  738.70607  734.40091  729.19515  725.01469  719.86124  715.32432  711.04594  706.67249  699.93115  695.65617  690.96061  686.39761  679.31939  674.76559  670.10937  666.96057  663.18338  658.76412  652.89331  645.86476  636.12230  621.86426  605.27750  583.60889
 101.00000  685.68910  681.53436  674.76856  677.69203  689.40137  720.90092  720.30007  718.71416  722.24979  722.93722  716.83086  721.91091  725.10944  719.85969  728.38576  731.76683  733.25878  735.37026  735.47988  737.48717  741.10136  747.37818  751.76810  751.15540  752.48081  754.12168  757.89391  758.99339  757.83527  754.60006  751.30759  749.74843  745.32978  741.49600  737.46855  732.72947  729.28674  724.06421  720.09642  714.94834  710.36999  706.09328  701.71919  694.11621  690.02797  685.70976  681.37815  674.00698  669.60192  664.99135  662.01488  658.22231  653.77923  647.90088  640.83089  631.07486  616.87404  600.68445  579.21659
 102.00000  679.75635  675.64217  668.88007  671.74160  682.68751  713.49562  713.94732  712.49744  716.16225  716.88693  710.88255  716.00359  719.20083  713.30505  722.56311  725.94681  727.50096  729.65768  729.83012  731.86414  735.50360  741.76086  746.13832  745.63914  746.97887  748.65820  752.43429  753.61627  752.51248  749.37895  746.19726  744.70832  740.37340  736.60547  730.85871  727.07441  724.34525  719.12182  715.31459  710.17404  705.56938  701.29622  696.92235  688.65060  684.71388  680.69814  676.54051  668.97038  664.67640  660.09452  657.22780  653.41267  648.94600  643.06101  635.96003  626.21271  612.10280  596.26586  575.08441
 103.00000  673.91118  669.82627  663.17672  665.98349  676.29818  706.45020  707.77224  706.45155  710.16929  710.92516  705.08350  710.17204  713.36795  707.06340  716.82153  720.21162  721.82177  724.02370  724.25153  726.31346  729.97353  736.21496  740.58412  740.19367  741.55064  743.26952  747.05225  748.31523  747.27016  744.23905  741.16705  739.74786  735.49684  731.79664  724.64940  721.70094  719.54842  714.33809  710.64624  705.51522  700.89732  696.62944  692.25662  683.49084  679.67307  675.89095  671.85621  664.16870  659.95251  655.38463  652.57349  648.72987  644.23992  638.34884  631.22595  621.50654  607.51683  591.99376  571.17562
 104.00000  668.14248  664.07834  657.63062  660.38918  670.19343  699.72386  701.74906  700.55164  704.25837  705.04065  699.41174  704.40762  707.60212  701.09230  711.15067  714.54999  716.21117  718.45814  718.73553  720.82618  724.50325  730.73165  735.09571  734.80997  736.18639  737.94551  741.73702  743.07958  742.09655  739.16824  736.20480  734.85484  730.68771  727.05663  718.80369  716.57436  714.87352  709.68852  706.07316  700.95344  696.33351  692.07248  687.70152  678.59913  674.87034  671.25891  667.30188  659.56756  655.39988  650.83333  648.03110  644.15421  639.64131  633.74446  626.60747  616.93244  603.08817  587.84533  567.45894
 105.00000  662.44211  658.39239  652.21905  654.93539  664.33867  693.28082  695.85686  694.77759  698.42015  699.22506  693.84962  698.70401  701.89701  695.35564  705.54293  708.95358  710.66180  712.95348  713.27589  715.39573  719.08701  725.30447  729.66584  729.48140  730.87892  732.67869  736.48056  737.90135  736.98282  734.15737  731.30136  730.02003  725.93661  722.37566  713.28811  711.66452  710.30210  705.15305  701.58086  696.47403  691.86163  687.60885  683.24051  673.94255  670.27528  666.77741  662.85839  655.13806  650.99324  646.41715  643.58386  639.66981  635.13434  629.23191  622.08752  612.47087  598.79369  583.80194  563.90771
 106.00000  656.80407  652.76405  646.92357  649.60301  658.70395  687.08970  690.07867  689.11305  692.64766  693.47221  688.38298  693.05662  696.24800  689.82270  699.99268  703.41617  705.16821  707.50421  707.86802  710.01732  713.72061  719.92867  724.28914  724.20308  725.62287  727.46346  731.27685  732.77458  731.92231  729.19952  726.44978  725.23643  721.23642  717.74629  708.07235  706.94523  705.81919  700.71523  697.15786  692.06530  687.46850  683.22520  678.86019  669.49246  665.86167  662.42574  658.51000  650.85590  646.71158  642.11665  639.21824  635.26395  630.70631  624.79839  617.65232  608.10590  594.61421  579.84834  560.49923
 107.00000  651.22393  647.19013  641.72915  644.37644  653.26338  681.12300  684.40069  683.54476  686.93564  687.77747  683.00042  687.46205  690.65167  684.46731  694.49575  697.93313  699.72639  702.10618  702.50856  704.68736  708.40094  714.60072  718.96161  718.97139  720.41426  722.29566  726.12140  727.69482  726.90998  724.28945  721.64482  720.49875  716.58174  713.16282  703.12896  702.39372  701.41261  696.36156  692.79502  687.71790  683.14351  678.91079  674.54974  665.22392  661.60686  658.18652  654.24383  646.70065  642.53741  637.91572  634.92334  630.92638  626.34697  620.43363  613.29073  603.82448  590.53382  575.97210  557.21414
 108.00000  645.69835  641.66827  636.62355  639.24288  647.99452  675.35660  678.81170  678.06194  681.28014  682.13738  677.69275  681.91778  685.10550  679.26720  689.04901  692.50098  694.33330  696.75633  697.19499  699.40323  703.12572  709.31799  713.68024  713.78361  715.25010  717.17215  721.01078  722.65868  721.94202  719.42317  716.88246  715.80297  711.96847  708.62091  698.43304  697.99023  697.07249  692.08098  688.48505  683.42440  678.87811  674.65689  670.30038  661.11524  657.49133  654.04507  650.04930  642.65513  638.45615  633.80101  630.69036  626.64885  622.04810  616.12938  608.99377  599.61598  586.53935  572.16305  554.03595
 109.00000  640.22484  636.19667  631.59680  634.19181  642.87795  669.76934  673.30255  672.65582  675.67814  676.54929  672.45260  676.42189  679.60757  674.20338  683.65009  687.11708  688.98668  691.45234  691.92544  694.16290  697.89322  704.07851  708.44278  708.63771  710.12814  712.09055  715.94242  717.66363  717.01551  714.59763  712.15967  711.14602  707.39344  704.11724  693.96207  693.71757  692.79079  687.86441  684.22216  679.17883  674.66536  670.45646  666.10502  657.14752  653.49821  649.98910  645.91769  638.70487  634.45570  629.76146  626.51218  622.42470  617.80306  611.87899  604.75414  595.47168  582.61986  568.41286  550.95063
 110.00000  634.80147  630.77395  626.64076  629.21463  637.89684  664.34265  667.86579  667.31925  670.12731  671.01119  667.27397  670.97292  674.15640  669.25971  678.29718  681.77942  683.68478  686.19242  686.69847  688.96487  692.70212  698.88077  703.24748  703.53214  705.04664  707.04906  710.91434  712.70770  712.12822  709.81050  707.47409  706.52554  702.85425  699.64924  689.69564  689.56081  688.56097  683.70439  680.00173  674.97645  670.49970  666.30380  661.95788  653.30432  649.61294  646.00822  641.84187  634.83771  630.52595  625.78789  622.38306  618.24859  613.60649  607.67712  600.56596  591.38445  578.76626  564.71471  547.94619
 111.00000  629.42674  625.39902  621.74876  624.30425  633.03662  659.06027  662.49533  662.04640  664.62585  665.52149  662.15204  665.56972  668.75085  664.42241  672.98889  676.48643  678.42626  680.97521  681.51296  683.80795  687.55139  693.72359  698.09302  698.46571  700.00428  702.04627  705.92501  707.78941  707.27844  705.05997  702.82393  701.93972  698.34904  695.21492  685.61523  685.50697  684.37772  679.59480  675.82006  670.81343  666.37660  662.19428  657.85430  649.57133  645.82295  642.09369  637.81596  631.04343  626.65848  621.87269  618.29834  614.11616  609.45406  603.51947  596.42443  587.34845  574.97104  561.06303  545.01243
 112.00000  624.09948  620.07100  616.91537  619.45483  628.28467  653.90789  657.18616  656.83250  659.17234  660.07894  657.08287  660.21137  663.38999  659.67974  667.72410  671.23688  673.21007  675.79963  676.36802  678.69121  682.44022  688.60606  692.97832  693.43746  695.00001  697.08110  700.97325  702.90758  702.46481  700.34463  698.20777  697.38715  693.87636  690.81274  681.70410  681.54477  680.23668  675.53059  671.67419  666.68670  662.29238  658.12415  653.79047  645.93608  642.11739  638.23818  633.83510  627.31339  622.84629  618.00954  614.25426  610.02393  605.34226  599.40255  592.32569  583.35888  571.22793  557.45323  542.14064
 113.00000  618.81873  614.78916  612.13610  614.66156  623.63006  648.87297  651.93421  651.67363  653.76561  654.68254  652.06328  654.89712  658.07308  655.02170  662.50193  666.02979  668.03534  670.66481  671.26295  673.61390  677.36796  683.52743  687.90256  688.44665  690.03300  692.15267  696.05811  698.06128  697.68629  695.66338  693.62452  692.86672  689.43507  686.44149  677.94706  677.66440  676.13432  671.50762  667.56174  662.59380  658.24409  654.09035  649.76329  642.38772  638.48688  634.43546  629.89533  623.64034  619.08353  614.19319  610.24775  605.96904  601.26825  595.32353  588.26655  579.41181  567.53171  553.88157  539.32342
 114.00000  613.58367  609.55286  607.40729  609.92048  619.06327  643.94450  646.73608  646.56657  648.40474  649.33145  647.09064  649.62633  652.79947  650.43975  657.32163  660.86436  662.90137  665.57004  666.19713  668.57540  672.33404  678.48709  682.86504  683.49266  685.10259  687.26029  691.17883  693.24978  692.94201  691.01534  689.07329  688.37756  685.02429  682.10021  674.33036  673.85733  672.06773  667.52246  663.48081  658.53274  654.22929  650.09040  645.77024  638.91679  634.92333  630.68033  625.99333  620.01816  615.36531  610.41927  606.27630  601.94918  597.22972  591.28013  584.24445  575.50400  563.87808  550.34495  536.55444
 115.00000  608.39365  604.36155  602.72589  605.22828  614.57611  639.11282  641.58899  641.50865  643.08894  644.02498  642.16281  644.39846  647.56862  645.92660  652.18260  655.73991  657.80758  660.51474  661.17008  663.57518  667.33799  673.48452  677.86518  678.57497  680.20820  682.40336  686.33479  688.47246  688.23131  686.39978  684.55338  683.91896  680.64328  677.78814  670.84153  670.11614  668.03455  663.57230  659.42984  654.50191  650.24602  646.12225  641.80925  635.51507  631.41974  626.96837  622.12639  616.44171  611.68755  606.68415  602.33789  597.96246  593.22477  587.27047  580.25726  571.63277  560.26340  546.84083  533.82830
 116.00000  603.24806  599.21473  598.08942  600.58224  610.16141  634.36942  636.49062  636.49768  637.81754  638.76250  637.27801  639.21301  642.38004  641.47603  647.08429  650.65588  652.75345  655.49838  656.18133  658.61279  662.37940  668.51927  672.90251  673.69314  675.34936  677.58141  681.52546  683.72882  683.55360  681.81613  680.06422  679.49035  676.29146  673.50465  667.46929  666.43438  664.03281  659.65481  655.40759  650.49999  646.29266  642.18425  637.87862  632.17539  627.97007  623.29585  618.29226  612.90664  608.04685  602.98479  598.43084  594.00733  589.25185  583.29303  576.30325  567.79592  556.68468  543.36711  531.14039
 117.00000  598.14637  594.11193  593.49577  595.98007  605.81298  629.70684  631.43905  631.53181  632.58996  633.54350  632.43479  634.06953  637.23328  637.08272  642.02624  645.61176  647.73853  650.52052  651.23050  653.68782  657.45790  663.59093  667.97659  668.84677  670.52566  672.79401  676.75040  679.01841  678.90842  677.26390  675.60531  675.09124  671.96835  669.24924  664.20340  662.80643  660.06091  655.76804  651.41301  646.52591  642.36789  638.27501  633.97697  628.89149  624.56908  619.65964  614.48905  609.40927  604.44035  599.31868  594.55378  590.08252  585.30970  579.34654  572.38100  563.99161  553.13940  539.92205  528.48679
 118.00000  593.08811  589.05273  588.94322  591.41987  601.52544  625.11851  626.43265  626.60950  627.40566  628.36747  627.63190  628.96762  632.12795  632.74212  637.00801  640.60711  642.76241  645.58075  646.31722  648.79990  652.57313  658.69916  663.08702  664.03552  665.73673  668.04079  672.00921  674.34088  674.29534  672.74267  671.17626  670.72125  667.67355  665.02147  661.03459  659.22742  656.11754  651.91039  647.44529  642.57879  638.47061  634.39343  630.10313  625.65793  621.21227  616.05706  610.71523  605.94651  600.86566  595.68370  590.70557  586.18698  581.39724  575.42997  568.48931  560.21834  549.62546  536.50421  525.86415
 119.00000  588.07283  584.03670  584.43031  586.90003  597.29411  620.59865  621.47005  621.72944  622.26418  623.23399  622.86830  623.90690  627.06364  628.45034  632.02922  635.64152  637.82472  640.67870  641.44115  643.94869  647.72478  653.84362  658.23348  659.25906  660.98222  663.32140  667.30154  669.69587  669.71402  668.25208  666.77671  666.38001  663.40669  660.82099  657.95447  655.69307  652.20157  648.08053  643.50370  638.65790  634.59992  630.53854  626.25616  622.46997  617.89572  612.48588  606.96947  602.51574  597.32076  592.07807  586.88527  582.31983  577.51360  571.54244  564.62720  556.47482  546.14109  533.11240  523.26960
 120.00000  583.10010  579.06346  579.95580  582.41920  593.11491  616.14220  616.55009  616.89054  617.16507  618.14262  618.14312  618.88698  622.04000  624.20402  627.08950  630.71462  632.92511  635.81404  636.60197  639.13388  642.91253  649.02398  653.41562  654.51708  656.26184  658.63555  662.62709  665.08308  665.16413  663.79180  662.40634  662.06722  659.16748  656.64747  654.95541  652.19968  648.31211  644.27734  639.58768  634.76263  630.75506  626.70958  622.43524  619.32346  614.61604  608.94417  603.25071  599.11473  593.80398  588.50032  583.09210  578.48033  573.65804  567.68324  560.79384  552.76000  542.68481  529.74560  520.70069
 121.00000  578.16953  574.13262  575.51864  577.97622  588.98431  611.74466  611.67177  612.09185  612.10793  613.09298  613.45559  613.90752  617.05667  620.00032  622.18849  625.82605  628.06324  630.98642  631.79936  634.35514  638.13610  644.23996  648.63314  649.80932  651.57530  653.98293  657.98555  660.50223  660.64538  659.36155  658.06488  657.78261  654.95564  652.50064  652.03054  648.74403  644.44837  640.49988  635.69674  630.89246  626.93540  622.90588  618.63972  616.21481  611.37031  605.43031  599.55801  595.74162  590.31389  584.94920  579.32538  574.66787  569.82993  563.85173  556.98852  549.07297  539.25537  526.40299  518.15533
 122.00000  573.28072  569.24379  571.11795  573.57010  584.89921  607.40210  606.83422  607.33253  607.09236  608.08468  608.80505  608.96817  612.11331  615.83676  617.32587  620.97547  623.23879  626.19553  627.03304  629.61220  633.39520  639.49127  643.88576  645.13548  646.92231  649.36328  653.37665  655.95306  656.15749  654.96106  653.75207  653.52592  650.77093  648.38025  649.17359  645.32331  640.60970  636.74736  631.83045  627.04696  623.14040  619.12689  614.86901  613.14086  608.15600  601.94292  595.89061  592.39481  586.84928  581.42364  575.58455  570.88190  566.02874  560.04740  553.21064  545.41298  535.85171  523.08385  515.63173
 123.00000  568.43331  564.39662  566.75295  569.20001  580.85693  603.11104  602.03669  602.61188  602.11798  603.11737  604.19093  604.06859  607.20959  611.71123  612.50131  616.16257  618.45145  621.44109  622.30272  624.90477  628.68956  634.77762  639.17318  640.49531  642.30262  644.77635  648.80012  651.43531  651.70022  650.59008  649.46767  649.29693  646.61312  644.28606  646.37890  641.93504  636.79557  633.01911  627.98845  623.22574  619.36960  615.37213  611.12264  610.09886  604.97089  598.48083  592.24785  589.07293  583.40915  577.92276  571.86914  567.12199  562.25402  556.26979  549.45970  541.77938  532.47294  519.78757  513.12836
 124.00000  563.62693  559.59074  562.42297  564.86519  576.85509  598.86841  597.27851  597.92927  597.18443  598.19069  599.61269  599.20846  602.34518  607.62190  607.71450  611.38702  613.70093  616.72278  617.60811  620.23256  624.01890  630.09875  634.49514  635.88855  637.71597  640.22186  644.25572  646.94874  647.27333  646.24839  645.21146  645.09542  642.48199  640.21787  643.64134  638.57710  633.00549  629.31456  624.17043  619.42850  615.62260  611.64120  607.40019  607.08642  601.81309  595.04302  588.62916  585.77484  579.99261  574.44579  568.17872  563.38772  558.50534  552.51850  545.73525  538.17161  529.11828  516.51365  510.64389
 125.00000  558.86121  554.82580  558.12740  560.56501  572.89166  594.67150  592.55909  593.28413  592.29135  593.30429  595.06989  594.38744  597.51976  603.56719  602.96513  606.64853  608.98693  612.04033  612.94893  615.59531  619.38295  625.45439  629.85138  631.31495  633.16210  635.69959  639.74320  642.49312  642.87657  641.93574  640.98323  640.92118  638.37735  636.17548  640.95625  635.24760  629.23906  625.63322  620.37612  615.65492  611.89907  607.93373  603.70130  604.10144  598.68093  591.62864  585.03405  582.49955  576.59894  570.99208  564.51292  559.67875  554.78237  548.79318  542.03689  534.58918  525.78710  513.26164  508.17722
