Temperature as a function of time and angular position 

Angular position
   theta1_[deg]   ..........   theta59_[deg]
              0.00000    2.30770    4.61537    6.92308    9.23076   11.53846   13.84615   16.15385   18.46154   20.76922   23.07693   25.38459   27.69235   29.99999   32.30761   34.61535   36.92316   39.23071   41.53852   43.84614   46.15391   48.46158   50.76920   53.07696   55.38465   57.69245   59.99996   62.30765   64.61545   66.92302   69.23081   71.53845   73.84626   76.15380   78.46165   80.76921   83.07696   85.38453   87.69242   90.00000   91.80880   93.61377   95.41182   97.19925   98.97270  100.72877  102.46490  104.17809  105.86579  107.52549  109.15559  110.75410  112.31952  113.85041  115.34617  116.80583  118.22886  119.61477  120.96376

Time and temperatures for the above positions
  time_[s]   T(theta1)_[K]      ..........  T(theta59)_[K]
   0.00000  301.55000  301.55000  301.55000  301.55000  301.55000  301.55000  301.55000  301.55000  301.55000  301.55000  301.55000  301.55000  301.55000  301.55000  301.55000  301.55000  301.55000  301.55000  301.55000  301.55000  301.55000  301.55000  301.55000  301.55000  301.55000  301.55000  301.55000  301.55000  301.55000  301.55000  301.55000  301.55000  301.55000  301.55000  301.55000  301.55000  301.55000  301.55000  301.55000  301.55000  301.55000  301.55000  301.55000  301.55000  301.55000  301.55000  301.55000  301.55000  301.55000  301.55000  301.55000  301.55000  301.55000  301.55000  301.55000  301.55000  301.55000  301.55000  301.55000
   0.10000 1286.27057 1282.42396 1279.94335 1272.71189 1266.69931 1256.66785 1230.51445 1215.62724 1208.62254 1201.12407 1193.26334 1187.62893 1180.19405 1171.46056 1162.03837 1150.81588 1139.29579 1126.91935 1114.06662 1102.23409 1090.01131 1075.80322 1064.94821 1054.37173 1042.91521 1030.93347 1018.63122 1006.02903  994.09392  982.17245  969.31102  956.32999  944.43153  932.25143  919.91997  906.71180  892.38418  878.22739  864.70609  852.46237  842.70488  833.45669  824.57274  815.90489  807.22202  798.85754  790.94176  783.04875  774.96567  766.79776  758.96033  751.07906  743.29094  735.34280  726.55466  716.04558  704.24338  693.55667  681.13442
   0.20000 1555.47836 1550.91548 1548.17208 1539.03365 1531.51371 1518.57086 1483.92000 1464.39020 1455.43997 1445.80627 1435.66543 1428.50513 1418.90081 1407.52632 1395.20274 1380.42937 1365.23294 1348.85937 1331.82178 1316.14108 1299.91364 1280.98612 1266.56759 1252.50726 1237.24103 1221.24861 1204.80724 1187.94555 1171.96977 1155.99838 1138.74580 1121.32046 1105.34394 1088.97749 1072.39812 1054.63119 1035.35427 1016.30620  998.11187  981.63136  968.48033  956.00586  944.01314  932.30375  920.56899  909.25437  898.53307  887.83659  876.88195  865.81019  855.17338  844.47383  833.89326  823.09643  811.18678  797.01077  781.14810  766.76833  750.14191
   0.30000 1738.41104 1733.80762 1731.32752 1721.32265 1713.20073 1698.68199 1658.59193 1636.25579 1626.34879 1615.61721 1604.26774 1596.41421 1585.65907 1572.79373 1558.78539 1541.85870 1524.40688 1505.53753 1485.85665 1467.75620 1448.98390 1426.98863 1410.31037 1394.03450 1376.30714 1357.69639 1338.53095 1318.84495 1300.18881 1281.51735 1261.30498 1240.86779 1222.13175 1202.91465 1183.42730 1162.51326 1139.79099 1117.32641 1095.86218 1076.41935 1060.91434 1046.19957 1032.04430 1018.21349 1004.34145  990.95679  978.26490  965.59203  952.60326  939.46620  926.83481  914.11986  901.53655  888.68849  874.51707  857.66398  838.82168  821.73025  802.00099
   0.40000 1875.09628 1870.79450 1868.84143 1858.51170 1850.25873 1834.86779 1790.96954 1766.80365 1756.46279 1745.18386 1733.19609 1725.09262 1713.73124 1699.99162 1684.95200 1666.62391 1647.68221 1627.12676 1605.63474 1585.88666 1565.35918 1541.18959 1522.95863 1505.15564 1485.69913 1465.22589 1444.10465 1422.37357 1401.77627 1381.13838 1358.74355 1336.07232 1315.29342 1293.95134 1272.28373 1248.98833 1223.63539 1198.55287 1174.57859 1152.86409 1135.56996 1119.15082 1103.34731 1087.89511 1072.38246 1057.40563 1043.19654 1028.99608 1014.42699  999.67853  985.48808  971.19170  957.03211  942.56286  926.59205  907.59236  886.34818  867.06961  844.82450
   0.50000 1981.85499 1978.04812 1976.76598 1966.43694 1958.33422 1942.50520 1895.83775 1870.45771 1860.00493 1848.52001 1836.24958 1828.17027 1816.54412 1802.31993 1786.66417 1767.41539 1747.47466 1725.75406 1702.98773 1682.09064 1660.31911 1634.55525 1615.23044 1596.34786 1575.63903 1553.79649 1531.22151 1507.95523 1485.90096 1463.77772 1439.71063 1415.31631 1392.96576 1369.97615 1346.60734 1321.43480 1293.98767 1266.81325 1240.82966 1217.29895 1198.58885 1180.81961 1163.70801 1146.96520 1130.14050 1113.88772 1098.46162 1083.03066 1067.18151 1051.12183 1035.66037 1020.06945 1004.61542  988.80893  971.34352  950.54606  927.27927  906.15788  881.78146
   0.60000 2067.43123 2064.22923 2063.69404 2053.57175 2045.79516 2029.81396 1981.09580 1954.92024 1944.56602 1933.10059 1920.78435 1912.90878 1901.24673 1886.80256 1870.81456 1850.97724 1830.37804 1807.85561 1784.19081 1762.49406 1739.83786 1712.88981 1692.79469 1673.14871 1651.52573 1628.66466 1604.99384 1580.55664 1557.39177 1534.12792 1508.75496 1483.00501 1459.42203 1435.12908 1410.40487 1383.71960 1354.56638 1325.68094 1298.05084 1273.03420 1253.17900 1234.31700 1216.14462 1198.35186 1180.45429 1163.15589 1146.73158 1130.28674 1113.37647 1096.22450 1079.70219 1063.02602 1046.48315 1029.54654 1010.80861  988.46716  963.45334  940.73937  914.51070
   0.70000 2137.21034 2134.67161 2134.91715 2125.13351 2117.79330 2101.85368 2051.60503 2024.93031 2014.81533 2003.52230 1991.32266 1983.77083 1972.23100 1957.75292 1941.63433 1921.44767 1900.43656 1877.37713 1853.08919 1830.84884 1807.57255 1779.74444 1759.11791 1738.94256 1716.65701 1693.03934 1668.54078 1643.20631 1619.19140 1595.04685 1568.64514 1541.81808 1517.26000 1491.92534 1466.10902 1438.18907 1407.62645 1377.32149 1348.32284 1322.07347 1301.28093 1281.52376 1262.48067 1243.82311 1225.03685 1206.87035 1189.61662 1172.32512 1154.52287 1136.44780 1119.02713 1101.42763 1083.95502 1066.04857 1046.20994 1022.52064  995.97268  971.85946  943.99396
   0.80000 2194.80248 2192.95183 2193.98441 2184.62229 2177.78521 2162.01954 2110.62789 2083.66845 2073.88664 2062.87019 2050.89948 2043.75115 2032.44388 2018.06486 2001.96166 1981.60199 1960.36188 1936.96359 1912.25973 1889.66858 1865.97248 1837.49671 1816.52015 1795.99358 1773.23820 1749.06555 1723.94641 1697.92686 1673.26426 1648.44138 1621.22756 1593.54166 1568.21030 1542.03967 1515.33877 1486.40387 1454.66691 1423.17372 1393.02731 1365.74650 1344.18175 1323.68668 1303.92431 1284.54967 1265.02186 1246.12924 1228.18119 1210.17706 1191.61849 1172.75614 1154.56769 1136.17502 1117.90069 1099.15340 1078.35236 1053.47306 1025.56221 1000.20536  970.87628
   0.90000 2242.76847 2241.60829 2243.41601 2234.52460 2228.22759 2212.72557 2160.48483 2133.39758 2124.01019 2113.34033 2101.67563 2094.98227 2083.98413 2069.79955 2053.81817 2033.41705 2012.08552 1988.49892 1963.53773 1940.74331 1916.78164 1887.83922 1866.65274 1845.91302 1822.83829 1798.26896 1772.69260 1746.15600 1721.00618 1695.66598 1667.81323 1639.44348 1613.50081 1586.65978 1559.24176 1529.46979 1496.74939 1464.25613 1433.14181 1404.99366 1382.79126 1361.68658 1341.32868 1321.35781 1301.20901 1281.70677 1263.17541 1244.56886 1225.36571 1205.82808 1186.97960 1167.90131 1148.93108 1129.44970 1107.80074 1081.86216 1052.73026 1026.25868  995.60957
   1.00000 2282.99877 2282.51640 2285.07531 2276.68025 2270.93936 2255.76020 2202.89597 2175.79606 2166.84095 2156.56306 2145.25598 2139.04864 2128.41162 2114.48935 2098.70722 2078.36325 2057.04438 2033.38482 2008.28886 1985.40511 1961.29793 1932.03164 1910.74460 1889.89985 1866.62471 1841.78463 1815.88167 1788.96300 1763.45511 1737.72760 1709.37655 1680.46553 1654.04358 1626.66762 1598.66987 1568.20739 1534.66137 1501.32392 1469.39092 1440.51165 1417.78322 1396.17548 1375.32496 1354.85859 1334.18945 1314.17497 1295.15319 1276.03666 1256.28274 1236.16401 1216.74622 1197.07294 1177.49611 1157.37077 1134.97068 1108.08336 1077.85044 1050.37328 1018.52567
   1.10000 2316.93065 2317.10342 2320.38175 2312.49198 2307.30860 2292.48936 2239.17606 2212.14768 2203.64568 2193.78712 2182.87049 2177.16527 2166.92315 2153.31050 2137.78330 2117.57024 2096.34278 2072.69889 2047.56329 2024.67860 2000.51984 1971.04322 1949.74145 1928.87684 1905.49603 1880.48621 1854.36208 1827.17085 1801.40984 1775.40110 1746.66722 1717.33244 1690.54012 1662.74139 1634.27807 1603.24734 1569.00796 1534.95721 1502.33101 1472.83529 1449.67461 1427.65352 1406.39717 1385.52035 1364.41609 1343.97192 1324.53861 1304.99067 1284.76593 1264.14648 1244.23689 1224.04616 1203.93922 1183.24726 1160.17914 1132.43813 1101.20746 1072.81869 1039.87725
   1.20000 2345.68159 2346.48031 2350.44147 2343.05412 2338.41929 2323.98081 2270.35388 2243.45790 2235.41736 2225.99218 2215.48483 2210.28677 2200.45967 2187.18843 2171.95525 2151.92777 2130.85100 2107.29077 2082.18942 2059.37230 2035.23558 2005.63932 1984.39025 1963.57303 1940.16225 1915.06416 1888.80444 1861.43010 1835.50184 1809.29902 1780.27792 1750.61705 1723.54493 1695.41711 1666.58391 1635.08795 1600.26714 1565.61415 1532.40140 1502.38673 1478.87345 1456.51527 1434.92702 1413.71236 1392.24586 1371.44277 1351.66560 1331.75385 1311.12718 1290.07639 1269.74202 1249.10099 1228.53027 1207.33881 1183.67494 1155.16303 1123.02464 1093.80620 1059.86231
   1.30000 2370.13569 2371.52724 2376.13191 2369.23583 2365.13339 2351.08460 2297.24931 2270.52886 2262.94900 2253.96135 2243.87167 2239.17765 2229.77538 2216.86544 2201.95265 2182.15063 2161.26862 2137.84386 2112.83393 2090.13728 2066.08016 2036.43681 2015.29333 1994.57645 1971.19629 1946.07578 1919.75016 1892.26606 1866.24110 1839.91617 1810.68741 1780.78213 1753.50596 1725.12780 1696.00550 1664.13174 1628.82499 1593.66477 1559.95685 1529.50683 1505.70908 1483.07915 1461.22246 1439.73246 1417.96659 1396.86573 1376.80329 1356.58634 1335.61764 1314.19597 1293.49528 1272.46265 1251.48620 1229.85412 1205.65798 1176.44802 1143.48122 1113.50537 1078.63966
   1.40000 2391.00227 2392.95135 2398.15905 2391.73735 2388.14629 2374.48734 2320.52545 2294.01010 2286.88345 2278.33017 2268.65873 2264.45962 2255.48421 2242.94637 2228.37045 2208.82218 2188.16705 2164.91680 2140.04218 2117.50644 2093.57367 2063.94123 2042.94453 2022.36953 1999.06836 1973.97862 1947.64393 1920.11034 1894.04676 1867.65928 1838.28934 1808.20824 1780.79166 1752.22967 1722.88678 1690.70983 1654.99911 1619.41341 1585.28912 1554.47589 1530.45229 1507.60697 1485.53667 1463.82540 1441.81478 1420.46934 1400.17267 1379.70173 1358.44345 1336.70395 1315.68833 1294.31579 1272.98483 1250.96415 1226.29197 1196.44860 1162.72390 1132.05490 1096.33917
   1.50000 2408.85686 2411.32731 2417.09745 2411.12944 2408.02558 2394.75027 2340.72501 2314.43391 2307.74822 2299.62078 2290.36231 2286.64464 2278.09223 2265.93030 2251.70010 2232.42476 2212.01918 2188.97228 2164.26624 2141.92190 2118.14791 2088.57258 2067.75442 2047.35351 2024.16976 1999.15368 1972.85619 1945.32264 1919.26826 1892.86758 1863.41212 1833.21294 1805.70957 1777.02007 1747.51492 1715.09872 1679.05474 1643.11428 1608.64192 1577.52801 1553.32926 1530.31733 1508.08100 1486.19554 1463.98781 1442.44431 1421.95814 1401.27816 1379.77650 1357.76602 1336.48092 1314.81427 1293.17428 1270.81127 1245.71319 1215.29418 1180.87469 1149.57012 1113.06877
   1.60000 2424.17081 2427.12654 2433.41922 2427.88180 2425.23907 2412.33665 2358.29661 2332.24093 2325.98055 2318.26654 2309.41150 2306.15866 2298.02103 2286.23346 2272.35190 2253.36149 2233.22063 2210.39776 2185.88503 2163.75455 2140.16540 2110.68375 2090.06822 2069.86607 2046.83003 2021.92198 1995.69926 1968.20638 1942.20051 1915.82747 1886.33315 1856.06458 1828.51958 1799.75039 1770.13276 1737.53229 1701.21622 1664.98242 1630.22142 1598.86128 1574.53133 1551.39521 1529.03430 1507.01576 1484.65267 1462.95196 1442.31562 1421.46628 1399.76211 1377.52221 1356.00801 1334.08806 1312.17962 1289.51567 1264.03663 1233.09393 1198.03649 1166.14825 1128.91943
   1.70000 2437.33313 2440.73879 2447.51533 2442.38405 2440.17544 2427.63197 2373.61416 2347.79892 2341.94591 2334.63020 2326.16591 2323.35919 2315.62489 2304.20608 2290.67149 2271.97235 2252.10541 2229.52074 2205.21912 2183.31846 2159.93344 2130.57414 2110.17905 2090.19413 2067.32937 2042.55670 2016.43907 1989.02008 1963.09492 1936.78325 1907.28913 1876.99223 1849.44371 1820.63544 1790.94784 1758.21046 1721.67542 1685.20176 1650.20398 1618.64517 1594.22225 1570.99886 1548.54958 1526.43397 1503.95222 1482.13030 1461.37850 1440.39492 1418.52454 1396.09224 1374.38499 1352.24823 1330.10771 1307.18001 1281.36050 1249.94104 1214.29714 1181.87223 1143.96873
   1.80000 2448.66703 2452.48845 2459.71176 2454.96160 2453.15985 2440.95927 2386.99144 2361.41704 2355.95198 2349.01756 2340.92920 2338.54850 2331.20374 2320.14504 2306.95225 2288.54624 2268.95771 2246.62014 2222.54187 2200.88176 2177.71461 2148.49981 2128.33785 2108.58353 2085.90807 2061.29228 2035.30404 2007.98593 1982.16771 1955.94514 1926.48388 1896.19325 1868.67330 1839.86042 1810.13921 1777.30576 1740.59795 1703.93112 1668.74194 1637.02604 1612.54345 1589.26505 1566.75907 1544.57799 1522.00993 1500.09858 1479.26205 1458.17539 1436.17116 1413.57952 1391.71149 1369.39069 1347.05081 1323.89289 1297.76954 1265.91592 1229.73236 1196.81360 1158.28355
   1.90000 2458.44250 2462.64702 2470.28183 2465.88778 2464.46591 2452.59081 2398.69340 2373.35672 2368.25936 2361.68807 2353.95933 2351.98375 2345.01314 2334.30363 2321.44480 2303.33033 2284.02094 2261.93518 2238.08798 2216.67487 2193.73482 2164.68133 2144.76100 2125.24644 2102.77370 2078.33141 2052.49177 2025.29631 1999.60625 1973.49545 1944.09426 1913.83898 1886.37454 1857.58629 1827.86252 1794.96826 1758.12790 1721.30873 1685.96791 1654.13139 1629.61816 1606.31292 1583.77799 1561.55923 1538.93339 1516.96074 1496.06672 1474.90473 1452.79552 1430.07420 1408.07435 1385.59900 1363.08929 1339.73147 1313.33754 1281.08855 1244.40808 1211.03457 1171.92204
   2.00000 2466.88621 2471.44284 2479.45585 2475.39334 2474.32502 2462.75726 2408.94486 2383.84017 2379.08994 2372.86297 2365.47664 2363.88493 2357.27202 2346.89917 2334.36449 2316.53724 2297.50478 2275.67217 2252.06012 2230.89705 2208.18965 2179.30982 2159.63615 2140.36710 2118.10666 2093.85042 2068.17436 2041.11890 2015.57394 1989.59328 1960.27473 1930.07918 1902.69281 1873.95393 1844.25410 1811.32944 1774.39159 1737.45579 1701.99822 1670.07309 1645.55452 1622.24706 1599.70751 1577.47551 1554.81711 1532.80809 1511.88076 1490.66814 1468.47981 1445.65540 1423.54981 1400.94652 1378.29370 1354.76351 1328.12926 1295.52035 1258.38212 1224.58972 1184.93522
   3.00000 2508.75348 2515.52031 2525.91492 2524.03750 2525.30547 2515.87252 2463.05639 2439.74276 2437.43066 2433.66591 2428.77040 2429.93853 2425.98210 2418.18718 2408.19700 2392.73785 2376.04597 2356.44530 2334.98663 2316.09228 2295.57614 2268.55313 2251.20434 2234.27938 2214.18105 2191.94310 2168.16092 2142.86383 2119.12343 2094.86293 2066.96273 2038.03912 2012.05069 1984.52055 1955.85760 1923.59524 1886.84795 1849.95418 1814.52033 1782.80027 1759.06508 1736.55677 1714.79244 1693.26579 1671.16293 1649.67081 1629.27202 1608.44743 1586.41981 1563.55883 1541.37799 1518.51077 1495.45611 1471.27501 1443.43522 1408.65237 1368.52804 1332.00873 1288.60202
   4.00000 2519.31191 2526.90900 2538.21064 2537.22108 2539.45099 2530.95733 2478.78206 2456.36323 2455.17124 2452.57187 2448.88941 2451.39739 2448.79015 2442.36043 2433.76578 2419.68158 2404.39426 2386.19753 2366.15129 2348.75060 2329.73673 2304.12055 2288.40152 2273.15432 2254.69736 2234.07653 2211.89228 2188.16593 2166.04807 2143.40256 2117.00560 2089.54014 2065.09305 2039.03473 2011.77783 1980.74802 1945.00011 1909.03045 1874.51085 1843.80232 1821.39780 1800.23928 1779.82123 1759.60994 1738.74283 1718.46823 1699.29722 1679.61842 1658.59762 1636.61730 1615.28539 1593.13875 1570.70419 1546.96695 1519.18814 1483.79614 1442.47643 1404.88521 1359.65542
   5.00000 2522.10177 2529.99197 2541.61985 2540.96418 2543.56256 2535.44492 2483.56903 2461.53889 2460.82133 2458.72852 2455.58676 2458.69780 2456.71821 2450.94355 2443.03716 2429.65652 2415.10675 2397.67081 2378.41236 2361.85601 2343.71543 2318.95842 2304.21764 2289.99750 2272.58043 2253.01697 2231.90934 2209.27472 2188.30045 2166.82306 2141.56737 2115.24670 2092.01180 2067.15626 2041.09277 2011.18779 1976.45925 1941.48417 1907.96868 1878.33391 1857.20238 1837.34887 1818.25461 1799.36896 1779.79859 1760.82720 1742.98274 1724.59530 1704.79173 1683.95894 1663.76328 1642.67621 1621.23975 1598.38484 1571.22609 1535.98325 1494.38532 1456.57876 1410.57246
   6.00000 2522.85910 2530.84935 2542.59092 2542.05592 2544.79021 2536.81631 2485.06586 2463.19443 2462.66968 2460.78783 2457.87670 2461.24877 2459.54865 2454.07362 2446.48995 2433.44918 2419.26421 2402.21463 2383.36630 2367.25679 2349.58963 2325.31500 2311.12346 2297.49119 2280.68562 2261.75985 2241.31744 2219.37410 2199.13552 2178.42601 2153.94512 2128.42106 2106.03793 2082.05028 2056.87055 2027.83247 1993.93161 1959.78764 1927.12552 1898.40142 1878.31585 1859.54844 1841.57297 1823.82855 1805.40244 1787.59962 1770.95865 1753.77184 1735.13918 1715.44828 1696.40265 1676.42850 1656.07600 1634.23627 1607.91746 1573.18400 1531.78504 1494.21399 1448.02198
   7.00000 2523.06835 2531.09203 2542.87244 2542.38000 2545.16328 2537.24283 2485.54220 2463.73337 2463.28506 2461.48884 2458.67352 2462.15590 2460.57700 2455.23523 2447.79850 2434.91665 2420.90612 2404.04583 2385.40311 2369.52162 2352.10150 2328.08601 2314.19170 2300.88371 2284.42359 2265.86630 2245.81675 2224.29070 2204.50363 2184.27486 2160.29186 2135.29078 2113.47394 2090.07632 2065.51059 2037.09263 2003.80490 1970.29041 1938.28512 1910.26636 1890.98282 1873.05958 1855.96668 1839.13750 1821.64730 1804.81459 1789.18519 1773.02708 1755.42187 1736.75656 1718.75906 1699.82398 1680.50591 1659.66664 1634.23582 1600.16071 1559.19709 1522.08784 1476.04218
   8.00000 2523.12688 2531.16158 2542.95507 2542.47741 2545.27807 2537.37714 2485.69568 2463.91101 2463.49249 2461.73044 2458.95424 2462.48250 2460.95528 2455.67169 2448.30058 2435.49151 2421.56262 2404.79298 2386.25094 2370.48316 2353.18893 2329.30895 2315.57180 2302.43857 2286.16881 2267.81892 2247.99510 2226.71380 2207.19606 2187.25959 2163.58635 2138.91717 2117.46480 2094.45469 2070.30025 2042.30793 2009.45281 1976.39123 1944.86601 1917.36781 1898.67576 1881.38382 1864.96065 1848.83685 1832.08071 1816.01986 1801.20563 1785.89054 1769.14399 1751.35223 1734.25976 1716.23926 1697.84790 1677.92590 1653.34478 1619.96267 1579.53446 1542.98455 1497.26355
   9.00000 2523.14341 2531.18170 2542.97955 2542.50696 2545.31372 2537.41983 2485.74560 2463.97011 2463.56306 2461.81448 2459.05406 2462.60117 2461.09572 2455.83720 2448.49501 2435.71878 2421.82754 2405.10065 2386.60711 2370.89515 2353.66404 2329.85364 2316.19830 2303.15777 2286.99115 2268.75594 2249.05946 2227.91898 2208.55890 2188.79673 2165.31219 2140.84905 2119.62634 2096.86511 2072.97979 2045.27212 2012.71326 1979.96754 1948.78237 1921.65713 1903.39066 1886.55935 1870.63199 1855.03834 1838.84295 1823.38011 1809.20560 1794.56252 1778.51242 1761.44125 1745.10523 1727.86207 1710.27075 1691.15587 1667.34577 1634.63062 1594.76059 1558.79339 1513.48224
  10.00000 2523.14811 2531.18756 2542.98686 2542.51598 2545.32487 2537.43349 2485.76194 2463.98990 2463.58724 2461.84392 2459.08980 2462.64461 2461.14822 2455.90041 2448.57084 2435.80928 2421.93521 2405.22824 2386.75780 2371.07294 2353.87310 2330.09798 2316.48472 2303.49281 2287.38138 2269.20880 2249.58322 2228.52268 2209.25363 2189.59399 2166.22271 2141.88554 2120.80540 2098.20154 2074.48949 2046.96882 2014.60882 1982.07885 1951.12957 1924.26628 1906.30084 1889.80000 1874.23353 1859.03148 1843.25683 1828.24895 1814.56751 1800.45015 1784.95373 1768.46444 1752.74720 1736.14977 1719.23269 1700.80953 1677.67666 1645.57240 1606.24057 1570.83756 1525.96506
  11.00000 2523.14946 2531.18928 2542.98905 2542.51876 2545.32838 2537.43789 2485.76733 2463.99658 2463.59557 2461.85430 2459.10268 2462.66059 2461.16797 2455.92469 2448.60059 2435.84552 2421.97922 2405.28146 2386.82192 2371.15010 2353.96562 2330.20821 2316.61642 2303.64977 2287.56762 2269.42891 2249.84242 2228.82679 2209.60980 2190.00984 2166.70580 2142.44478 2121.45219 2098.94670 2075.34490 2047.94550 2015.71711 1983.33234 1952.54427 1925.86238 1908.10724 1891.84060 1876.53357 1861.61719 1846.15414 1831.48791 1818.18157 1804.46997 1789.40746 1773.38101 1758.16228 1742.09266 1725.73436 1707.89333 1685.34246 1653.78057 1614.94481 1580.06526 1535.62664
  12.00000 2523.14984 2531.18979 2542.98971 2542.51961 2545.32948 2537.43931 2485.76911 2463.99883 2463.59846 2461.85797 2459.10734 2462.66650 2461.17543 2455.93406 2448.61231 2435.86009 2421.99729 2405.30376 2386.84933 2371.18374 2354.00675 2330.25817 2316.67725 2303.72364 2287.65691 2269.53639 2249.97128 2228.98070 2209.79324 2190.22775 2166.96330 2142.74792 2121.80863 2099.36411 2075.83181 2048.51032 2016.36808 1984.07998 1953.40089 1926.84326 1909.23369 1893.13146 1878.00922 1863.29925 1848.06473 1833.65252 1820.62876 1807.22718 1792.50111 1776.83870 1762.01706 1746.37377 1730.47286 1713.11530 1691.05685 1659.96639 1621.57483 1587.16761 1543.13899
  13.00000 2523.14995 2531.18994 2542.98991 2542.51988 2545.32984 2537.43978 2485.76970 2463.99960 2463.59946 2461.85928 2459.10903 2462.66870 2461.17826 2455.93769 2448.61694 2435.86598 2422.00474 2405.31314 2386.86110 2371.19846 2354.02510 2330.28090 2316.70545 2303.75855 2287.69989 2269.58907 2250.03560 2229.05889 2209.88809 2190.34239 2167.10108 2142.91287 2122.00582 2099.59883 2076.11004 2048.83820 2016.75192 1984.52761 1953.92156 1927.44838 1909.93881 1893.95119 1878.95958 1864.39766 1849.32947 1835.10468 1822.29218 1809.12560 1794.65825 1779.27971 1764.77163 1749.46958 1733.93957 1716.97951 1695.33289 1664.64597 1626.64422 1592.65503 1549.00255
  14.00000 2523.14999 2531.18998 2542.98997 2542.51996 2545.32995 2537.43993 2485.76990 2463.99986 2463.59981 2461.85974 2459.10964 2462.66951 2461.17934 2455.93910 2448.61878 2435.86837 2422.00782 2405.31710 2386.86616 2371.20493 2354.03332 2330.29128 2316.71858 2303.77509 2287.72064 2269.61498 2250.06780 2229.09875 2209.93728 2190.40288 2167.17504 2143.00292 2122.11526 2099.73123 2076.26954 2049.02916 2016.97897 1984.79649 1954.23906 1927.82290 1910.38164 1894.47341 1879.57363 1865.11727 1850.16939 1836.08205 1823.42650 1810.43695 1796.16724 1781.00856 1766.74637 1751.71551 1736.48403 1719.84824 1698.54296 1668.19753 1630.53287 1596.90844 1553.59398
  15.00000 2523.15000 2531.18999 2542.98999 2542.51999 2545.32998 2537.43998 2485.76997 2463.99995 2463.59993 2461.85991 2459.10987 2462.66982 2461.17975 2455.93965 2448.61952 2435.86934 2422.00910 2405.31878 2386.86835 2371.20777 2354.03701 2330.29602 2316.72470 2303.78295 2287.73069 2269.62775 2250.08397 2229.11912 2209.96287 2190.43490 2167.21486 2143.05221 2122.17617 2099.80614 2076.36123 2049.14069 2017.11365 1984.95845 1954.43321 1928.05533 1910.66050 1894.80704 1879.97148 1865.59002 1850.72873 1836.74168 1824.20218 1811.34529 1797.22576 1782.23641 1768.16598 1753.34939 1738.35676 1721.98385 1700.95948 1670.90044 1633.52405 1600.21446 1557.19923
  16.00000 2523.15000 2531.19000 2542.99000 2542.52000 2545.32999 2537.43999 2485.76999 2463.99998 2463.59998 2461.85997 2459.10995 2462.66993 2461.17990 2455.93986 2448.61981 2435.86973 2422.00963 2405.31949 2386.86929 2371.20903 2354.03867 2330.29820 2316.72756 2303.78670 2287.73557 2269.63407 2250.09211 2229.12955 2209.97621 2190.45188 2167.23634 2143.07926 2122.21015 2099.84861 2076.41407 2049.20598 2017.19374 1985.05624 1954.55222 1928.19993 1910.83654 1895.02068 1880.22988 1865.90133 1851.10212 1837.18794 1824.73386 1811.97599 1797.97007 1783.11054 1769.18897 1754.54085 1739.73840 1723.57749 1702.78298 1672.96242 1635.83041 1602.79027 1560.03690
  17.00000 2523.15000 2531.19000 2542.99000 2542.52000 2545.33000 2537.44000 2485.77000 2463.99999 2463.59999 2461.85999 2459.10998 2462.66998 2461.17996 2455.93995 2448.61993 2435.86989 2422.00985 2405.31979 2386.86970 2371.20958 2354.03942 2330.29920 2316.72890 2303.78849 2287.73794 2269.63720 2250.09621 2229.13491 2209.98318 2190.46091 2167.24796 2143.09413 2122.22915 2099.87275 2076.44458 2049.24428 2017.24145 1985.11540 1954.62532 1928.29008 1910.94790 1895.15778 1880.39805 1866.10677 1851.35190 1837.49048 1825.09908 1812.41482 1798.49454 1783.73415 1769.92768 1755.41152 1740.75987 1724.76921 1704.16187 1674.53874 1637.61246 1604.80136 1562.27510
  18.00000 2523.15000 2531.19000 2542.99000 2542.52000 2545.33000 2537.44000 2485.77000 2464.00000 2463.60000 2461.86000 2459.10999 2462.66999 2461.17999 2455.93998 2448.61997 2435.86996 2422.00994 2405.31992 2386.86988 2371.20983 2354.03976 2330.29967 2316.72953 2303.78935 2287.73909 2269.63875 2250.09829 2229.13767 2209.98683 2190.46572 2167.25425 2143.10233 2122.23979 2099.88649 2076.46223 2049.26679 2017.26994 1985.15127 1954.67031 1928.34638 1911.01847 1895.24592 1880.50770 1866.24260 1851.51930 1837.69596 1825.35041 1812.72072 1798.86477 1784.17986 1770.46211 1756.04895 1741.51646 1725.66201 1705.20648 1675.74603 1638.99194 1606.37444 1564.04372
  19.00000 2523.15000 2531.19000 2542.99000 2542.52000 2545.33000 2537.44000 2485.77000 2464.00000 2463.60000 2461.86000 2459.11000 2462.67000 2461.18000 2455.93999 2448.61999 2435.86999 2422.00998 2405.31997 2386.86996 2371.20994 2354.03991 2330.29988 2316.72983 2303.78976 2287.73966 2269.63952 2250.09934 2229.13909 2209.98874 2190.46828 2167.25767 2143.10685 2122.24576 2099.89433 2076.47246 2049.28005 2017.28697 1985.17305 1954.69803 1928.38161 1911.06327 1895.30269 1880.57931 1866.33254 1851.63168 1837.83576 1825.52365 1812.93431 1799.12657 1784.49895 1770.84938 1756.51638 1742.07777 1726.33197 1705.99916 1676.67219 1640.06154 1607.60693 1565.44358
  20.00000 2523.15000 2531.19000 2542.99000 2542.52000 2545.33000 2537.44000 2485.77000 2464.00000 2463.60000 2461.86000 2459.11000 2462.67000 2461.18000 2455.94000 2448.62000 2435.87000 2422.01000 2405.31999 2386.86999 2371.20999 2354.03998 2330.29998 2316.72997 2303.78995 2287.73993 2269.63991 2250.09987 2229.13982 2209.98975 2190.46965 2167.25952 2143.10935 2122.24911 2099.89880 2076.47839 2049.28786 2017.29717 1985.18629 1954.71515 1928.40368 1911.09176 1895.33929 1880.62616 1866.39219 1851.70722 1837.93100 1825.64324 1813.08366 1799.31196 1784.72773 1771.13043 1756.85966 1742.49481 1726.83545 1706.60154 1677.38373 1640.89210 1608.57399 1566.55320
  21.00000 2527.64147 2536.02447 2547.40647 2547.23050 2550.80673 2541.73667 2489.79337 2468.49631 2468.44848 2467.10788 2464.75817 2468.47700 2467.13253 2462.15441 2454.66473 2442.31784 2428.45879 2411.86594 2393.44287 2377.83908 2360.47797 2336.68877 2323.15316 2310.07467 2293.96938 2275.70096 2256.03470 2234.98923 2215.88152 2196.15918 2172.98293 2148.97350 2128.02278 2105.54585 2082.01696 2054.54195 2022.49117 1990.30358 1959.82815 1933.49318 1916.23634 1900.54571 1885.89782 1871.64372 1857.01137 1843.40181 1831.19311 1818.68705 1805.02445 1790.62178 1777.09769 1762.93072 1748.47779 1732.46348 1711.38823 1681.29722 1644.70906 1612.28675 1572.58004
  22.00000 2535.58232 2544.24529 2554.53163 2555.01984 2560.65330 2547.45488 2495.02986 2475.09146 2475.85903 2475.39273 2474.06987 2478.15098 2477.07056 2472.74567 2464.90524 2453.56794 2439.76873 2423.52713 2405.30948 2389.92396 2372.10077 2348.53366 2335.05245 2321.70522 2305.53378 2286.91942 2267.05478 2245.84481 2226.93956 2206.71310 2183.68033 2160.19723 2139.01747 2116.21318 2092.36883 2064.25018 2032.14763 1999.89009 1969.44060 1943.18402 1926.15841 1910.64783 1896.16260 1881.86978 1867.35430 1854.12384 1842.08000 1829.69104 1816.21086 1802.16226 1788.71398 1774.63250 1759.79215 1742.73509 1719.49692 1687.50718 1650.97523 1618.38924 1584.72000
  23.00000 2534.26372 2541.96755 2551.56377 2552.25116 2559.11080 2542.70284 2489.68479 2469.97800 2471.02437 2470.77101 2469.75878 2473.90694 2472.76027 2468.55727 2460.69039 2449.63588 2435.90021 2419.89207 2401.90360 2386.66348 2368.70092 2345.66488 2332.10437 2318.72474 2302.63336 2284.00355 2264.24445 2243.05538 2224.31643 2203.93531 2181.00718 2157.95234 2136.68473 2113.72913 2089.70913 2061.53725 2029.62346 1997.58411 1967.23056 1941.23331 1924.45018 1909.06798 1894.64064 1880.39892 1865.93602 1852.81657 1840.83729 1828.53890 1815.07654 1801.08492 1787.58375 1773.37920 1758.30951 1740.88023 1717.13646 1685.40638 1649.94095 1617.94601 1586.49585
  24.00000 2531.74821 2538.11073 2547.11120 2547.90432 2555.59632 2537.76982 2483.01601 2462.06549 2463.22152 2463.01668 2461.76654 2465.82244 2464.51378 2459.98780 2452.22790 2440.90419 2427.13794 2411.11652 2393.16749 2377.89737 2359.99655 2337.22037 2323.50013 2310.09855 2294.08162 2275.55516 2255.95675 2234.85129 2216.09018 2195.79697 2172.84029 2149.92207 2128.65289 2105.63117 2081.55469 2053.68243 2022.02714 1990.28991 1960.04863 1934.28432 1917.64376 1902.31729 1887.83717 1873.68444 1859.22842 1846.05017 1834.07394 1821.82410 1808.33394 1794.23255 1780.60155 1766.21417 1751.08462 1733.79244 1710.65633 1680.34287 1646.40438 1615.32222 1582.52812
  25.00000 2535.06795 2540.55713 2548.75583 2549.97393 2558.78035 2540.06193 2482.40709 2459.62560 2461.16694 2461.38741 2459.98703 2464.02395 2462.72530 2457.86217 2450.14477 2438.57165 2424.71611 2408.56078 2390.47875 2375.09454 2357.22814 2334.24375 2320.42062 2306.84153 2290.77362 2272.21989 2252.60889 2231.50318 2212.57107 2192.33748 2169.25246 2146.27027 2124.97601 2101.80950 2077.65086 2049.95310 2018.41048 1986.82778 1956.64946 1930.97601 1914.38584 1899.07136 1884.49728 1870.39025 1855.95049 1842.74359 1830.78195 1818.54888 1805.11164 1790.95028 1777.21435 1762.74925 1747.61058 1730.45329 1707.78563 1678.43130 1645.73008 1615.28304 1580.75877
  26.00000 2542.97463 2548.24500 2555.58316 2557.47057 2567.65471 2546.86740 2486.22575 2462.13503 2464.37869 2465.37645 2464.29907 2468.47325 2467.38774 2462.46861 2454.76122 2443.27408 2429.39990 2413.20040 2395.01386 2379.60131 2361.68493 2338.33883 2324.55374 2310.72248 2294.51396 2275.78707 2256.01241 2234.80675 2215.71125 2195.40472 2172.19692 2149.14835 2127.78452 2104.36712 2080.02387 2052.19673 2020.56349 1988.94030 1958.73980 1933.06470 1916.50789 1901.18272 1886.53065 1872.39556 1858.00385 1844.85450 1832.92912 1820.69334 1807.38786 1793.28395 1779.52865 1765.12596 1749.97345 1732.73110 1709.90429 1680.51343 1648.33715 1617.97450 1583.56426
  27.00000 2549.92551 2555.47780 2562.15979 2564.49976 2575.90017 2551.08786 2488.43821 2463.99297 2467.06744 2468.81827 2468.45743 2472.87760 2472.06234 2467.36363 2459.77294 2448.65689 2434.91713 2418.86598 2400.77712 2385.50962 2367.54036 2344.10273 2330.44395 2316.45806 2300.15506 2281.25125 2261.33439 2240.01346 2220.87481 2200.45336 2177.20403 2154.20746 2132.79553 2109.13597 2084.56761 2056.49349 2024.69572 1992.96077 1962.65814 1936.98826 1920.50424 1905.15300 1890.45302 1876.25118 1861.91403 1848.81737 1836.89870 1824.65497 1811.47150 1797.48036 1783.77806 1769.49545 1754.36073 1736.94792 1713.68115 1683.73437 1651.29712 1620.53610 1587.87170
  28.00000 2553.55993 2559.92054 2565.98932 2568.17923 2580.50541 2550.50267 2486.69351 2462.19823 2466.17133 2468.44390 2468.79296 2473.50852 2472.89451 2468.45372 2461.10125 2450.40769 2436.87488 2421.04981 2403.21085 2388.16167 2370.19708 2346.98726 2333.36170 2319.34096 2303.08785 2284.09445 2264.16063 2242.78247 2223.66566 2203.23030 2179.98734 2157.09072 2135.72481 2111.98052 2087.30968 2059.19736 2027.37740 1995.62459 1965.18798 1939.53610 1923.13901 1907.75431 1893.01301 1878.76968 1864.43959 1851.27330 1839.27322 1827.03265 1813.89220 1799.99598 1786.34536 1772.13498 1757.11439 1739.69946 1716.29368 1685.96063 1652.67196 1621.31400 1589.88390
  29.00000 2557.92085 2565.75395 2570.47795 2572.15488 2585.58897 2551.13293 2485.59237 2460.07161 2465.14980 2467.98189 2468.67269 2473.71372 2473.26956 2468.86260 2461.67069 2451.25784 2437.79614 2422.01677 2404.30281 2389.30754 2371.34233 2348.23852 2334.37991 2320.24703 2304.12657 2285.04869 2265.13210 2243.72924 2224.51065 2204.17656 2180.85599 2157.88076 2136.64275 2113.02000 2088.50190 2060.69325 2029.11439 1997.50465 1967.00642 1941.28914 1924.90245 1909.48927 1894.67254 1880.43211 1866.01133 1852.63497 1840.46008 1828.22892 1815.06052 1801.22054 1787.53263 1773.31847 1758.51927 1741.41255 1718.44441 1688.26583 1654.22236 1622.64333 1590.01962
  30.00000 2564.67552 2573.45718 2575.44078 2577.47595 2592.37582 2555.27210 2486.85466 2459.10892 2465.15128 2468.90092 2469.67061 2474.90686 2474.70174 2470.09275 2462.87340 2452.46136 2438.91137 2422.95733 2405.10646 2389.93244 2371.91428 2348.56445 2334.34501 2319.96594 2303.82986 2284.59811 2264.62562 2243.14609 2223.69536 2203.37454 2179.83067 2156.47730 2135.31641 2111.90078 2087.68037 2060.19756 2028.93034 1997.55160 1967.27007 1941.49322 1925.03792 1909.57920 1894.60939 1880.29356 1865.66358 1852.03059 1839.65632 1827.34468 1814.05967 1800.12211 1786.27331 1772.05889 1757.51754 1741.12466 1719.38889 1690.71024 1658.11658 1628.16851 1593.67464
  31.00000 2544.59000 2547.69000 2547.18000 2552.59000 2566.28000 2524.75000 2458.10000 2431.05000 2435.17000 2438.89000 2440.40000 2444.82000 2444.55000 2439.99000 2433.48000 2422.26000 2409.34000 2393.92000 2376.59000 2361.77000 2344.18000 2322.18000 2308.43000 2294.80000 2278.30000 2259.48000 2239.95000 2218.47000 2199.55000 2178.87000 2155.36000 2131.88000 2110.58000 2087.25000 2062.84000 2034.93000 2003.33000 1972.22000 1942.84000 1918.03000 1901.86000 1886.17000 1870.91000 1856.07000 1841.12000 1827.17000 1814.65000 1801.84000 1787.93000 1773.02000 1758.98000 1744.84000 1730.54000 1715.97000 1698.19000 1676.64000 1653.27000 1630.67000 1603.41000
  32.00000 2144.28620 2121.53423 2123.87459 2134.36162 2168.75158 2161.78868 2113.89121 2096.78675 2094.41060 2090.57644 2088.41142 2089.78161 2087.41592 2084.74911 2079.59315 2074.55635 2068.14240 2059.82869 2050.31272 2041.96895 2030.29846 2013.91597 2006.44659 1996.67950 1984.67941 1970.59541 1956.47862 1939.05423 1923.67035 1908.76689 1890.84866 1871.72119 1854.35863 1834.91943 1815.11902 1793.52041 1769.44451 1745.59197 1722.65780 1702.84515 1689.24606 1675.37010 1661.80265 1649.10272 1636.28707 1624.08552 1613.12833 1602.00401 1590.17997 1577.50832 1566.13716 1555.00939 1543.97738 1532.11950 1515.29468 1492.01039 1465.60280 1440.55068 1411.12099
  33.00000 1388.52223 1383.61360 1378.36313 1365.96243 1385.95475 1455.02522 1458.36768 1445.15419 1414.86677 1406.38675 1400.45603 1396.71890 1396.83340 1395.85677 1399.01270 1397.66164 1402.68449 1404.96482 1404.71419 1404.49592 1403.12884 1398.75857 1395.97463 1393.90681 1388.95780 1383.22859 1377.10649 1368.57672 1358.49505 1350.77820 1345.69683 1338.00876 1325.90309 1313.95778 1300.72088 1289.09909 1277.42226 1265.02026 1252.37005 1243.16545 1236.71278 1227.48278 1216.72941 1207.71015 1200.22759 1193.31175 1186.72056 1180.49967 1174.45099 1166.91730 1158.94686 1152.19291 1146.91998 1142.12633 1133.82320 1117.78083 1090.45497 1050.76654 1015.42604
  34.00000 1207.30168 1206.67160 1199.60098 1181.71215 1198.25213 1285.55423 1301.18325 1288.90274 1251.92264 1242.32861 1235.49493 1230.53314 1231.24235 1230.67100 1235.81999 1235.35272 1243.11794 1247.93856 1249.90961 1251.63971 1252.74324 1251.25331 1249.59286 1249.37121 1246.11294 1242.38708 1238.18198 1231.78500 1222.97473 1216.98111 1214.97783 1210.03275 1199.18760 1189.03920 1177.37613 1168.14664 1159.44291 1149.78657 1139.60230 1132.94134 1128.20228 1120.08630 1110.00771 1101.87101 1095.66724 1090.01884 1084.47455 1079.42942 1074.76558 1068.46390 1061.30890 1055.60373 1051.71173 1048.61198 1042.35222 1028.04634 1000.50030  957.30231  920.54449
  35.00000 1121.74000 1123.13000 1115.20000 1094.72000 1109.63000 1205.54000 1226.97000 1215.13000 1174.99000 1164.87000 1157.61000 1152.07000 1153.06000 1152.68000 1158.77000 1158.72000 1167.78000 1173.80000 1176.82000 1179.47000 1181.74000 1181.61000 1180.48000 1181.13000 1178.67000 1175.89000 1172.59000 1167.20000 1158.99000 1153.81000 1153.26000 1149.61000 1139.36000 1130.06000 1119.14000 1111.04000 1103.74000 1095.38000 1086.36000 1080.90000 1076.97000 1069.38000 1059.62000 1051.90000 1046.30000 1041.25000 1036.20000 1031.71000 1027.70000 1021.98000 1015.21000 1010.00000 1006.76000 1004.46000  999.16500  985.67900  958.02900  913.17400  875.74700
  36.00000 1104.77461 1109.75811 1102.13400 1087.67133 1099.28175 1176.08602 1199.48884 1201.09033 1161.44701 1149.75954 1143.54657 1137.07225 1137.47954 1137.13529 1141.99178 1140.93083 1149.01971 1154.88274 1158.18520 1160.25227 1162.14739 1162.24202 1160.72339 1161.88959 1158.91734 1155.77848 1152.55234 1147.20977 1139.60234 1133.53323 1132.67962 1128.79978 1119.39570 1109.70027 1098.99541 1090.36653 1083.35727 1075.24880 1066.50092 1060.28704 1056.70449 1050.04732 1040.84965 1032.92245 1027.17521 1022.22103 1017.31426 1012.83062 1008.83995 1004.08712  997.90307  992.91343  989.74669  987.58019  982.90983  969.86061  943.20133  898.29845  854.63212
  37.00000 1076.51544 1080.18010 1073.25898 1060.50219 1072.77293 1145.46316 1168.94119 1172.10297 1135.50103 1124.31663 1118.54317 1112.30711 1112.68098 1112.43606 1117.01731 1116.12842 1124.00236 1129.76686 1133.25138 1135.47885 1137.50438 1137.84049 1136.59458 1137.86178 1135.07718 1132.10918 1129.14772 1124.12781 1117.00146 1111.20751 1110.32854 1106.51245 1097.63513 1088.34920 1078.15329 1069.85690 1063.20993 1055.58433 1047.30158 1041.26775 1037.77185 1031.31936 1022.30684 1014.40412 1008.57608 1003.53116  998.53941  993.94671  989.85861  985.11480  978.97218  973.94416  970.60643  968.07018  962.91872  949.77277  924.15848  881.23579  838.61889
  38.00000 1050.18414 1052.77200 1046.48154 1035.20112 1047.95979 1116.87473 1140.38153 1144.89096 1111.03595 1100.33943 1094.97912 1088.98189 1089.33931 1089.19730 1093.54723 1092.82944 1100.52277 1106.21478 1109.87284 1112.25999 1114.42250 1114.99416 1114.01602 1115.39746 1112.81013 1110.02170 1107.31654 1102.60731 1095.92410 1090.39454 1089.51559 1085.77835 1077.36869 1068.44770 1058.69749 1050.69757 1044.36849 1037.16106 1029.28328 1023.40819 1019.98391 1013.70553 1004.85501  996.97564  991.07625  985.95007  980.88213  976.19336  972.01857  967.27984  961.17345  956.11116  952.61983  949.75649  944.18369  930.92776  906.14883  864.91687  823.22477
  39.00000 1025.62736 1027.34808 1021.62354 1011.61756 1024.71538 1090.16299 1113.65757 1119.32546 1087.95136 1077.72737 1072.75547 1066.99647 1067.35201 1067.31535 1071.47254 1070.92399 1078.46642 1084.10805 1087.93103 1090.47595 1092.77979 1093.58031 1092.86383 1094.36962 1091.98627 1089.38347 1086.92594 1082.51538 1076.24095 1070.96528 1070.10747 1066.46128 1058.46744 1049.87236 1040.51273 1032.77766 1026.72740 1019.88134 1012.35549 1006.62029 1003.25450  997.12341  988.41456  980.55760  974.59532  969.39635  964.25999  959.48652  955.23436  950.49695  944.42181  939.32848  935.69869  932.54573  926.60418  913.22901  889.10559  849.30764  808.42835
  40.00000 1002.70411 1003.73870  998.52214  989.61325 1002.92237 1065.18257 1088.62887 1095.28711 1066.15377 1056.38686 1051.78018 1046.25777 1046.62392 1046.69405 1050.69229 1050.31031 1057.72750 1063.33735 1067.31657 1070.01635 1072.46401 1073.48604 1073.02420 1074.66174 1072.48658 1070.07328 1067.85446 1063.73065 1057.83385 1052.80184 1051.98264 1048.43719 1040.81374 1032.51048 1023.49345 1015.99549 1010.18978 1003.65532  996.43473  990.82274  987.50403  981.49679  972.91177  965.07646  959.05891  953.79467  948.59676  943.74850  939.42701  934.68737  928.63872  923.51682  919.76169  916.35195  910.08789  896.58761  872.96637  834.37558  794.20897
  41.00000  981.28475  981.78890  977.02850  969.06119  982.47232 1041.79953 1065.16588 1072.66536 1045.55613 1036.23084 1031.96764 1026.67931 1027.06664 1027.24418 1031.11292 1030.89424 1038.20817 1043.80178 1047.92857 1050.77949 1053.37181 1054.60757 1054.39260 1056.16695 1054.20207 1051.98023 1049.99112 1046.14228 1040.59485 1035.79659 1035.03025 1031.59306 1024.30028 1016.25908 1007.54305 1000.25790  994.66668  988.40032  981.44402  975.94055  972.65902  966.75520  958.27840  950.46415  944.39813  939.07531  933.82192  928.90749  924.52357  919.77835  913.75165  908.60297  904.73387  901.09608  894.55005  880.92168  857.67284  820.08969  780.54669
  42.00000  961.25008  961.35713  957.00655  949.84476  963.26503 1019.89044 1043.14914 1051.35782 1026.07740 1017.17834 1013.23821 1008.18071 1008.59814 1008.88295 1012.64780 1012.58856 1019.81803 1025.40822 1029.67397 1032.67161 1035.40808 1036.84942 1036.87299 1038.78720 1037.03289 1035.00287 1033.23443 1029.64899 1024.42535 1019.85123 1019.14923 1015.82599 1008.82915 1001.02409  992.57305  985.47949  980.07648  974.04029  967.31239  961.90448  958.65159  952.83345  944.45126  936.65761  930.54921  925.17376  919.87024  914.89709  910.45666  905.70269  899.69361  894.51940  890.54612  886.70534  879.91282  866.15587  843.17053  806.42039  767.42227
  43.00000  942.49047  942.31410  938.33193  931.85683  945.20788  999.34159 1022.46845 1031.26962 1007.64209  999.15402  995.51783  990.68727  991.14222  991.53351  995.21664  995.31257 1002.47350 1008.07069 1012.46692 1015.60632 1018.48526 1020.12379 1020.37714 1022.43257 1020.88762 1019.04844 1017.49166 1014.15831 1009.23522 1004.87600 1004.24742 1001.04221  994.31104  986.71958  978.50246  971.58199  966.34423  960.50523  953.97437  948.65066  945.41905  939.67126  931.37185  923.59846  917.45314  912.03032  906.68135  901.65593  897.16402  892.39833  886.40276  881.20377  877.13471  873.11274  866.10473  852.22078  829.40853  793.33944  754.81715
  44.00000  924.90513  924.54172  920.89095  914.99903  928.21527  980.04817 1003.02219 1012.31291  990.17994  982.08780  978.73760  974.12957  974.62812  975.12459  978.74509  978.99156  986.09732  991.70986  996.22822  999.50399 1002.52277 1004.34995 1004.82401 1007.02058 1005.68248 1004.03205 1002.67801  999.58574  994.94214  990.78891  990.24077  987.15633  980.66446  973.26705  965.25713  958.49363  953.40115  947.73077  941.36961  936.12013  932.90353  927.21287  918.98602  911.23264  905.05528  899.58975  894.19946  889.12730  884.58815  879.80793  873.82197  868.59855  864.44089  860.25666  853.06017  839.05251  816.33927  780.81991  742.71341
  45.00000  908.40139  907.93210  904.57970  899.18099  912.20811  961.91363  984.71662  994.40629  973.62551  965.91446  962.83342  958.44309  958.99016  959.59003  963.16425  963.55635  970.61809  976.25250  980.88482  984.29123  987.44641  989.45362  990.13914  992.47555  991.34079  989.87607  988.71601  985.85412  981.47089  977.51510  977.05264  974.09054  967.81507  960.59479  952.76916  946.14866  941.18411  935.65765  929.44245  924.25849  921.05157  915.40672  907.24360  899.51011  893.30504  887.80092  882.37290  877.25873  872.67591  867.87856  861.89850  856.65066  852.41051  848.08036  840.71887  826.59224  803.91831  768.83611  731.09378
  46.00000  892.89401  892.38671  889.30316  884.31973  897.11328  944.84897  967.46528  977.47436  957.91787  950.57336  947.74570  943.56787  944.16734  944.86844  948.41029  948.94290  955.96981  961.63100  966.36932  969.90042  973.18788  975.36651  976.25413  978.72808  977.79225  976.50948  975.53480  972.89295  968.75274  964.98620  964.61313  961.77400  955.69505  948.63729  940.97641  934.48678  929.63514  924.23135  918.14157  913.01553  909.81378  904.20511  896.09818  888.38450  882.15560  876.61652  871.15393  866.00175  861.37823  856.56128  850.58365  845.31109  840.99361  836.53165  829.02550  814.78580  792.10410  757.36352  719.94156
  47.00000  878.30463  877.81553  874.97451  870.33902  882.86321  928.77221  951.18844  961.44729  943.00027  936.00806  933.41897  929.44817  930.10301  930.90286  934.42408  935.09194  942.09145  947.78298  952.61955  956.26920  959.68432  962.02580  963.10614  965.71449  964.97252  963.86730  963.06964  960.63785  956.72490  953.13976  952.85852  950.14215  944.24252  937.33468  929.82194  923.45275  918.70104  913.40172  907.41963  902.34491  899.14459  893.56395  885.50677  877.81289  871.56361  865.99276  860.49833  855.31154  850.64975  845.81093  839.83242  834.53462  830.14415  825.56247  817.92925  803.58332  780.85785  746.37874  709.24067
  48.00000  864.56119  864.13633  861.51437  857.16884  869.39545  913.60777  935.81254  946.26038  928.81990  922.16605  919.80165  916.03220  916.74457  917.64042  921.15085  921.94858  928.92664  934.65084  939.57816  943.34011  946.87785  949.37372  950.63744  953.37636  952.82264  951.89010  951.26131  949.02997  945.32998  941.91875  941.73066  939.13618  933.40102  926.63230  919.25366  912.99590  908.33298  903.12260  897.23297  892.20387  889.00186  883.44243  875.42955  867.75553  861.48893  855.88913  850.36524  845.14668  840.44860  835.58576  829.60327  824.27953  819.81967  815.12862  807.38344  792.93887  770.14329  735.85945  698.97557
  49.00000  851.59741  851.27401  848.85016  844.74489  856.65229  899.28604  921.26974  931.85370  915.32756  908.99851  906.84577  903.27181  904.04319  905.03208  908.53983  909.46201  916.42322  922.18141  927.19224  931.06020  934.71519  937.35711  938.79497  941.66011  941.28861  940.52351  940.05572  938.01560  934.51556  931.27108  931.17656  928.70253  923.11903  916.48019  909.22386  903.06980  898.48612  893.35152  887.54136  882.55293  879.34672  873.80282  865.82968  858.17562  851.89442  846.26814  840.71683  835.46884  830.73606  825.84723  819.85784  814.50728  809.98102  805.18940  797.34524  782.81017  759.92654  725.78435  689.13128
  50.00000  839.35235  839.15993  836.91556  833.00811  844.58037  885.74284  907.49747  918.17172  902.47742  896.45998  894.50669  891.12228  891.95351  893.03232  896.54401  897.58520  904.53300  910.32562  915.41297  919.38066  923.14729  925.92712  927.53001  930.51658  930.32095  929.71780  929.40338  927.54564  924.23372  921.14919  921.14786  918.79240  913.34957  906.83270  899.68884  893.63190  889.11930  884.04941  878.30767  873.35568  870.14323  864.61022  856.67302  849.03906  842.74568  837.09507  831.51812  826.24263  821.47638  816.55972  810.56071  805.18232  800.59211  795.70734  787.77528  773.15828  750.17592  716.13313  679.69333
  51.00000  827.76997  827.73144  825.64990  821.90425  833.13038  872.91904  894.43800  905.16301  890.22684  884.50818  882.74289  879.54200  880.43342  881.59888  885.11982  886.27460  893.21144  899.03818  904.19531  908.25647  912.12900  915.03877  916.79778  919.90067  919.87435  919.42745  919.25907  917.57524  914.44070  911.50961  911.60048  909.36133  904.04974  897.64814  890.60862  884.64316  880.19474  875.18030  869.49765  864.57851  861.35822  855.83236  847.92799  840.31430  834.01087  828.33781  822.73674  817.43531  812.63652  807.69033  801.67913  796.27185  791.61963  786.64797  778.63742  763.94734  740.86185  706.88640  670.64778
  52.00000  816.79874  816.93124  814.99776  811.38347  822.25676  860.76015  882.03808  892.77992  878.53609  873.10379  871.51574  868.49233  869.44379  870.69257  874.22690  875.48988  882.41734  888.27725  893.49771  897.64618  901.61873  904.65071  906.55714  909.77100  909.90729  909.61083  909.58144  908.06344  905.09649  902.31267  902.49420  900.36882  895.18042  888.88841  881.94655  876.06782  871.67775  866.71110  861.07975  856.19037  852.96105  847.43937  839.56532  831.97210  825.66051  819.96663  814.34275  809.01661  804.18596  799.20867  793.18290  787.74558  783.03291  777.97956  769.89847  755.14433  731.95669  698.02566  661.98115
  53.00000  806.39126  806.70705  804.90844  801.40000  811.91739  849.21595  870.24862  880.97830  867.36816  862.21020  860.78931  857.93734  858.94831  860.27700  863.82784  865.19371  872.11264  878.00424  883.28185  887.51155  891.57822  894.72492  896.77029  900.08960  900.38174  900.22985  900.33268  898.97280  896.16452  893.52210  893.79233  891.77797  886.70591  880.51869  873.66910  867.87310  863.53649  858.61137  853.02484  848.16264  844.92342  839.40365  831.55792  823.98539  817.66729  811.95403  806.30844  800.95855  796.09651  791.08667  785.04410  779.57553  774.80363  769.67289  761.52794  746.71885  723.43458  689.53326  653.68046
  54.00000  796.50396  797.01106  795.33561  791.91179  802.07331  838.24015  859.02429  869.71726  856.68861  851.79335  850.53017  847.84364  848.91326  850.31841  853.88801  855.35154  862.26213  868.18351  873.51234  877.81733  881.97222  885.22639  887.40250  890.82165  891.26287  891.24966  891.47823  890.26913  887.61140  885.10481  885.46144  883.55516  878.59361  872.50720  865.74555  860.02892  855.74173  850.85308  845.30607  840.46889  837.21918  831.69964  823.88070  816.32909  810.00596  804.27454  798.60817  793.23525  788.34210  783.29839  777.23694  771.73592  766.90569  761.70109  753.49784  738.64288  715.27139  681.39236  645.73317
  55.00000  787.09673  787.79961  786.23690  782.88022  792.68856  827.79011  848.32330  858.95891  846.46535  841.82158  840.70723  838.18019  839.30730  840.78546  844.37528  845.93136  852.83327  858.78216  864.15656  868.53105  872.76829  876.12294  878.42185  881.93518  882.51874  882.63838  882.98649  881.92118  879.40659  877.03053  877.47100  875.66976  870.81382  864.82485  858.14779  852.50773  848.26662  843.41044  837.89868  833.08472  829.82419  824.30372  816.51045  808.98000  802.65311  796.90461  791.21825  785.82279  780.89865  775.81987  769.73762  764.20292  759.31502  754.03939  745.78242  730.89064  707.44455  673.58690  638.12717
  56.00000  778.13273  779.03282  777.57358  774.26980  783.72987  817.82650  838.10711  848.66814  836.66851  832.26540  831.29156  828.91813  830.10134  831.64907  835.25992  836.90355  843.79598  849.76981  855.18439  859.62274  863.93655  867.38495  869.79901  873.40087  874.12012  874.36682  874.82857  873.90040  871.52219  869.27165  869.79318  868.09385  863.33938  857.44510  850.85006  845.28426  841.08653  836.25973  830.77980  825.98761  822.71615  817.19403  809.42563  801.91660  795.58709  789.82241  784.11672  778.69907  773.74393  768.62896  762.52414  756.95453  752.00941  746.66501  738.35809  723.43838  699.93298  666.10155  630.85081
  57.00000  769.57803  770.67422  769.31024  766.04796  775.16647  808.31311  828.34014  838.81243  827.27025  823.09738  822.25623  820.03065  821.26837  822.88225  826.51436  828.24065  835.12244  841.11842  846.56805  851.06481  855.44949  858.98519  861.50703  865.19182  866.04021  866.40828  866.97804  866.18070  863.93269  861.80291  862.40259  860.80202  856.14555  850.34369  843.82877  838.33535  834.17882  829.37911  823.92839  819.15678  815.87444  810.35036  802.60634  795.11898  788.78783  783.00776  777.28328  771.84362  766.85738  761.70523  755.57617  749.97047  744.96840  739.55698  731.20312  716.26421  692.71697  658.92168  623.89281
  58.00000  761.40147  762.69053  761.41449  758.18474  766.96996  799.21652  818.98957  829.36163  818.24467  814.29199  813.57622  811.49282  812.78329  814.45995  818.11304  819.91727  826.78693  832.80210  838.28191  842.83179  847.28179  850.89860  853.52114  857.28333  858.25445  858.73834  859.41074  858.73825  856.61479  854.60126  855.27606  853.77107  849.20972  843.49842  837.06232  831.63976  827.52273  822.74847  817.32500  812.57304  809.28005  803.75400  796.03412  788.56869  782.23677  776.44197  770.69916  765.23755  760.22000  755.02976  748.87496  743.23198  738.17309  732.69598  724.29758  709.34799  685.77810  652.03333  617.24230
  59.00000  753.57436  755.05132  753.85673  750.65263  759.11406  790.50597  810.02514  820.28783  809.56761  805.82549  805.22821  803.28146  804.62280  806.35891  810.03231  811.90989  818.76567  824.79694  830.30230  834.90023  839.41012  843.10212  845.81858  849.65275  850.74034  851.33464  852.10458  851.55126  849.54717  847.64563  848.39248  846.97990  842.51129  836.88905  830.53093  825.17801  821.09918  816.34932  810.95171  806.21869  802.91539  797.38765  789.69189  782.24866  775.91670  770.10776  764.34697  758.86336  753.81423  748.58510  742.40316  736.72177  731.60607  726.06422  717.62315  702.67114  679.09917  645.42319  610.88881
  60.00000  746.07033  747.72879  746.60988  743.42638  751.57447  782.15307  801.41891  811.56515  801.21660  797.67578  797.19054  795.37502  796.76524  798.55754  802.25023  804.19671  811.03668  817.08087  822.60739  827.24847  831.81299  835.57453  838.37844  842.27927  843.47728  844.17671  845.03934  844.59983  842.71037  840.91677  841.73255  840.40927  836.03141  830.49704  824.21647  818.93224  814.89065  810.16463  804.79199  800.07737  796.76422  791.23531  783.56384  776.14305  769.81171  763.98910  758.21063  752.70489  747.62387  742.35511  736.14476  730.42386  725.25127  719.64535  711.16301  696.21658  672.66408  639.07856  604.82221
  61.00000  738.86509  740.69752  739.64919  736.48275  744.32875  774.13169  793.14511  803.16962  793.17070  789.82229  789.44303  787.75349  789.19053  791.03583  794.74646  796.75757  803.57962  809.63350  815.17704  819.85658  824.47063  828.29631  831.18147  835.14382  836.44636  837.24583  838.19656  837.86575  836.08659  834.39709  835.27869  834.04162  829.75291  824.30548  818.10235  812.88608  808.88107  804.17873  798.83057  794.13400  790.81154  785.28216  777.63530  770.23721  763.90705  758.07117  752.27527  746.74718  741.63390  736.32489  730.08496  724.32351  719.09387  713.42427  704.90170  689.96856  666.45781  632.98731  599.03273
  62.00000  731.93635  733.93432  732.95202  729.80043  737.35613  766.41770  785.17997  795.07902  785.41041  782.24588  781.96692  780.39823  781.87997  783.77516  787.50218  789.57379  796.37569  802.43602  807.99264  812.70616  817.36481  821.24950  824.21002  828.22888  829.63027  830.52485  831.55932  831.33241  829.65953  828.07052  829.01485  827.86098  823.66012  818.29889  812.17337  807.02452  803.05565  798.37720  793.05340  788.37464  785.04349  779.51451  771.89271  764.51757  758.18906  752.34026  746.52710  740.97642  735.83050  730.48066  724.21009  718.40709  713.12020  707.38712  698.82499  683.91254  660.46630  627.13788  593.51096
  63.00000  725.26356  727.41795  726.49767  723.35980  730.63742  758.98890  777.50154  787.27276  777.91756  774.92875  774.74474  773.29195  774.81622  776.75828  780.49992  782.62805  789.40752  795.47105  801.03704  805.78024  810.47876  814.41758  817.44783  821.51836  823.01313  823.99809  825.11217  824.98461  823.41434  821.92237  822.92638  821.85277  817.73871  812.46312  806.41561  801.33379  797.40085  792.74676  787.44749  782.78642  779.44726  773.91968  766.32349  758.97153  752.64510  746.78367  740.95338  735.37982  730.20084  724.80969  718.50752  712.66204  707.31764  701.52110  692.91984  678.03518  654.67643  621.51924  588.24782
  64.00000  718.82784  721.12904  720.26721  717.14287  724.15488  751.82479  770.08957  779.73176  770.67522  767.85431  767.76025  766.41854  767.98318  769.96917  773.72350  775.90434  782.65901  788.72254  794.29440  799.06318  803.79702  807.78533  810.87996  814.99752  816.58042  817.65118  818.84096  818.80844  817.33739  815.93922  816.99993  816.00371  811.97560  806.78526  800.81630  795.80125  791.90419  787.27518  782.00087  777.35748  774.01103  768.48594  760.91600  753.58747  747.26347  741.38964  735.54233  729.94554  724.73309  719.30021  712.96558  707.07673  701.67455  695.81443  687.17425  672.32415  649.07591  616.12085  583.23451
  65.00000  712.61181  715.04987  714.24331  711.13308  717.89211  744.90649  762.92538  772.43834  763.66764  761.00714  760.99832  759.76304  761.36586  763.39294  767.15792  769.38782  776.11530  782.17565  787.75009  792.54055  797.30535  801.33875  804.49269  808.65280  810.31878  811.47097  812.73275  812.79121  811.41625  810.10881  811.22329  810.30170  806.35888  801.25349  795.36377  790.41532  786.55425  781.95121  776.70249  772.07685  768.72385  763.20246  755.65947  748.35458  742.03331  736.14727  730.28302  724.66266  719.41632  713.94135  707.57348  701.64045  696.18020  690.25628  681.57719  666.76809  643.65328  610.93267  578.46260
  66.00000  706.59949  709.16423  708.41014  705.31522  711.83393  738.21658  755.99173  765.37610  756.88013  754.37288  754.44488  753.31154  754.95037  757.01578  760.78928  763.06474  769.76265  775.81671  781.39062  786.19905  790.99063  795.06495  798.27340  802.47176  804.21599  805.44543  806.77571  806.92130  805.63954  804.41992  805.58534  804.73568  800.87764  795.85699  790.04730  785.16539  781.34051  776.76450  771.54215  766.93441  763.57564  758.05917  750.54390  743.26287  736.94457  731.04650  725.16535  719.52105  714.24041  708.72306  702.32127  696.34328  690.82468  684.83665  676.11851  661.35654  638.39781  605.94512  573.92390
  67.00000  700.77618  703.45733  702.75322  699.67533  705.96633  731.73901  749.27271  758.52986  750.29900  747.93817  748.08684  747.05110  748.72378  750.82488  754.60470  756.92235  763.58831  769.63307  775.20353  780.02641  784.84080  788.95209  792.21048  796.44299  798.26086  799.56353  800.95900  801.18810  799.99686  798.86229  800.07590  799.29560  795.52194  790.58590  784.85708  780.04170  776.25331  771.70550  766.51046  761.92080  758.55705  753.04680  745.56004  738.30307  731.98797  726.07798  720.17998  714.51137  709.19601  703.63605  697.19973  691.17609  685.59885  679.54634  670.78890  656.07987  633.29948  601.14904  569.61054
  68.00000  695.12833  697.91563  697.25928  694.20056  700.27633  725.45897  742.75363  751.88554  743.91152  741.69057  741.91201  740.96969  742.67409  744.80832  748.59222  750.94888  757.58054  763.61304  769.17732  774.01130  778.84470  782.98923  786.29325  790.55599  792.44309  793.81518  795.27272  795.58189  794.47869  793.42657  794.68571  793.97228  790.28268  785.43117  779.78413  775.03532  771.28380  766.76544  761.59873  757.02740  753.65947  748.15674  740.69931  733.46660  727.15488  721.23309  715.31825  709.62495  704.27449  698.67173  692.20034  686.13043  680.49426  674.37687  665.57979  650.92918  628.34891  596.53573  565.51492
  69.00000  689.64351  692.52677  691.91621  688.87911  694.75194  719.36282  736.42092  745.43008  737.70581  735.61849  735.90904  735.05613  736.79014  738.95505  742.74078  745.13339  751.72845  757.74583  763.30136  768.14328  772.99209  777.16633  780.51189  784.80113  786.75327  788.19113  789.70778  790.09380  789.07633  788.10418  789.40630  788.75734  785.15157  780.38456  774.82020  770.13805  766.42383  761.93623  756.79896  752.24623  748.87492  743.38104  735.95378  728.74550  722.43731  716.50381  710.57215  704.85378  699.46786  693.82217  687.31525  681.19847  675.50313  669.32043  660.48330  645.89628  623.53736  592.09684  561.62970
  70.00000  684.31025  687.27942  686.71291  683.70012  689.38208  713.43796  730.26208  739.15138  731.67081  729.71117  730.06738  729.30000  731.06159  733.25482  737.04011  739.46575  746.02196  752.02148  757.56585  762.41273  767.27351  771.47413  774.85739  779.16958  781.18276  782.68291  784.25590  784.71570  783.78180  782.88728  784.22993  783.64316  780.12103  775.43850  769.95774  765.34236  761.66590  757.21043  752.10375  747.56993  744.19603  738.71233  731.31608  724.13243  717.82788  711.88274  705.93425  700.19046  694.76872  689.08002  682.53718  676.37302  670.61827  664.36981  655.49219  640.97362  618.85663  587.82444  557.94781
  71.00000  679.11801  682.16325  681.63923  678.65363  684.15647  707.67279  724.26555  733.03823  725.79620  723.95856  724.37720  723.69163  725.47879  727.69807  731.48069  733.93659  740.45177  746.43078  751.96173  756.81074  761.68025  765.90412  769.32143  773.65320  775.72362  777.28277  778.90946  779.44017  778.58783  777.76872  779.14954  778.62275  775.18413  770.58609  765.18984  760.64135  757.00316  752.58117  747.50629  742.99170  739.61600  734.14381  726.77940  719.62053  713.31974  707.36301  701.39770  695.62814  690.17025  684.43850  677.85941  671.64742  665.83303  659.51838  650.59979  636.15424  614.29907  583.71095  554.46242
  72.00000  674.05708  677.16880  676.68589  673.73046  679.06564  702.05660  718.42067  727.08022  720.07239  718.35133  718.82935  718.22202  720.03280  722.27596  726.05369  728.53721  735.00924  740.96520  746.48064  751.32912  756.20428  760.44844  763.89638  768.24453  770.36859  771.98360  773.66151  774.26040  773.48775  772.74193  774.15867  773.68977  770.33454  765.82100  760.51015  756.02868  752.42926  748.04214  743.00028  738.50526  735.12853  729.66915  722.33743  715.20349  708.90653  702.93827  696.95614  691.16047  685.66613  679.89133  673.27572  667.01549  661.14131  654.76003  645.79996  631.43172  609.85752  579.74913  551.16694
  73.00000  669.11854  672.28743  671.84438  668.92219  674.10082  696.57951  712.71759  721.26772  714.49042  712.88076  713.41532  712.88281  714.71530  716.98028  720.75093  723.25957  729.68642  735.61690  741.11486  745.96029  750.83820  755.09987  758.57520  762.93671  765.11100  766.77889  768.50567  769.17017  768.47545  767.80093  769.25144  768.83843  765.56649  761.13745  755.91286  751.49854  747.93842  743.58753  738.57990  734.10480  730.72781  725.28252  717.98431  710.87544  704.58238  698.60264  692.60368  686.78159  681.25052  675.43272  668.78037  662.47156  656.53742  650.08911  641.08707  626.80013  605.52528  575.93210  548.05502
  74.00000  664.29416  667.51122  667.10693  664.22107  669.25388  691.23241  707.14720  715.59177  709.04195  707.53878  708.12716  707.66620  709.51856  711.80338  715.56481  718.09619  724.47590  730.37860  735.85725  740.69728  745.57519  749.85174  753.35144  757.72344  759.94471  761.66266  763.43611  764.16380  763.54535  762.94023  764.42246  764.06342  760.87468  756.53015  751.39263  747.04559  743.52529  739.21197  734.23980  729.78498  726.40845  720.97851  713.71461  706.63095  700.34184  694.35065  688.33487  682.48606  676.91802  671.05729  664.36804  658.01036  652.01615  645.50043  636.45593  622.25401  601.29611  572.25325  545.12051
  75.00000  659.57638  662.83294  662.46642  659.61997  664.51732  686.00690  701.70113  710.04408  703.71920  702.31783  702.95752  702.56495  704.43541  706.73816  710.48831  713.04017  719.37087  725.24358  730.70121  735.53363  740.40895  744.69793  748.21913  752.59893  754.86412  756.62946  758.44748  759.23606  758.69233  758.15481  759.66682  759.35991  756.25429  751.99425  746.94457  742.66494  739.18495  734.91053  729.97501  725.54083  722.16549  716.75212  709.52331  702.46498  696.17985  690.17726  684.14466  678.26886  672.66362  666.76008  660.03381  653.62704  647.57268  640.98919  631.90176  617.78833  597.16415  568.70632  542.35752
  76.00000  654.95822  658.24596  657.91632  655.11233  659.88418  680.89522  696.37159  704.61696  698.51493  697.21089  697.89950  697.57233  699.45915  701.77804  705.51488  708.08508  714.36499  720.20563  725.64066  730.46339  735.33369  739.63278  743.17279  747.55786  749.86407  751.67425  753.53489  754.38219  753.91170  753.44007  754.98001  754.72349  751.70090  747.52533  742.56420  738.35208  734.91292  730.67866  725.78098  721.36777  717.99433  712.59871  705.40574  698.37286  692.09175  686.07778  680.02837  674.12533  668.48272  662.53651  655.77316  649.31709  643.20253  636.55097  627.42017  613.39843  593.12394  565.28531  539.76032
  77.00000  650.43328  653.74423  653.45066  650.69214  655.34805  675.89021  691.15144  699.30328  693.42238  692.21142  692.94671  692.68205  694.58359  696.91690  700.63847  703.22498  709.45242  715.25901  720.66997  725.48106  730.34405  734.65108  738.20739  742.59533  744.93981  746.79245  748.69385  749.59783  749.19919  748.79181  750.35792  750.15015  747.21047  743.11932  738.24740  734.10288  730.70502  726.51217  721.65347  717.26159  713.89071  708.51398  701.35760  694.35026  688.07320  682.04789  675.98169  670.05118  664.37102  658.38232  651.58185  645.07636  638.90160  632.18169  623.00709  609.08002  589.17035  561.98450  537.32341
  78.00000  645.99564  649.32221  649.06399  646.35384  650.90298  670.98527  686.03406  694.09642  688.43526  687.31333  688.09319  687.88829  689.80295  692.14905  695.85347  698.45437  704.62774  710.39842  715.78394  720.58156  725.43510  729.74804  733.31828  737.70683  740.08701  741.97983  743.92023  744.87896  744.55085  744.20618  745.79680  745.63618  742.77931  738.77251  733.99040  729.91356  726.55746  722.40719  717.58858  713.21837  709.85070  704.49398  697.37487  690.39317  684.12016  678.08356  672.00059  666.04240  660.32457  654.29358  647.45602  640.90101  634.66607  627.87759  618.65881  604.82914  585.29860  558.79844  535.04148
  79.00000  641.63986  644.97482  644.75129  642.09234  646.54346  666.17430  681.01331  688.99022  683.54770  682.51094  683.33339  683.18562  685.11187  687.46920  691.15466  693.76814  699.88592  705.61893  710.97776  715.76022  720.60228  724.91923  728.50118  732.88824  735.30167  737.23252  739.21028  740.22192  739.96309  739.67964  741.29320  741.17824  738.40404  734.48149  729.78973  725.78062  722.46672  718.36016  713.58271  709.23450  705.87066  700.53500  693.45384  686.49786  680.22893  674.18106  668.08136  662.09531  656.33971  650.26665  643.39205  636.78749  630.49243  623.63518  614.37189  600.64213  581.50423  555.72192  532.90939
  80.00000  637.36094  640.69742  640.50798  637.90294  642.26439  661.45168  676.08357  683.97901  678.75421  677.79897  678.66213  678.56898  680.50535  682.87244  686.53720  689.16154  695.22232  700.91602  706.24698  711.01269  715.84139  720.16057  723.75215  728.13574  730.58011  732.54698  734.56053  735.62335  735.43260  735.20898  736.84398  736.77324  734.08156  730.24314  725.64222  721.70087  718.42958  714.36780  709.63253  705.30664  701.94724  696.63365  689.59106  682.66089  676.39604  670.33695  664.22055  658.20650  652.41304  646.29818  639.38662  632.73250  626.37742  619.45127  610.14316  596.51563  577.78304  552.74998  530.92221
  81.00000  633.15424  636.48576  636.32985  633.78132  638.06107  656.81221  671.23959  679.05748  674.04971  673.17250  674.07459  674.03368  675.97876  678.35420  681.99660  684.63018  690.63264  696.28548  701.58750  706.33497  711.14856  715.46829  719.06755  723.44582  725.91896  727.91993  729.96781  731.08018  730.95637  730.79122  732.44626  732.41839  729.80904  726.05461  721.54495  717.67136  714.44307  710.42709  705.73498  701.43170  698.07731  692.78676  685.78335  678.87904  672.61828  666.54803  660.41498  654.37278  648.54144  642.38503  635.43664  628.73300  622.31804  615.32290  605.96971  592.44650  574.13112  549.87786  529.07516
  82.00000  629.01553  632.33594  632.21305  629.72350  633.92913  652.25110  666.47655  674.22073  669.42943  668.62692  669.56630  669.57532  671.52777  673.91024  677.52869  680.16999  686.11288  691.72342  696.99552  701.72338  706.52020  710.83892  714.44405  718.81526  721.31513  723.34840  725.42921  726.58956  726.53160  726.42365  728.09740  728.11111  725.58389  721.91329  717.49523  713.68939  710.50445  706.53522  701.88720  697.60683  694.25799  688.99140  682.02775  675.14936  668.89270  662.81133  656.66169  650.59124  644.72199  638.52433  631.53925  624.78618  618.31149  611.24732  601.84883  588.43187  570.54481  547.10106  527.36364
  83.00000  624.94088  628.24438  628.15405  625.72584  629.86453  647.76392  661.79000  669.46420  664.88892  664.15798  665.13307  665.18984  667.14837  669.53661  673.12961  675.77719  681.65936  687.22624  692.46751  697.17448  701.95300  706.26927  709.87856  714.24109  716.76577  718.82962  720.94205  722.14893  722.15577  722.10379  723.79500  723.84904  721.40374  717.81675  713.49061  709.75248  706.61120  702.68964  698.08658  693.82939  690.48663  685.24487  678.32151  671.46909  665.21653  659.12410  652.95793  646.85915  640.95199  634.71340  627.69182  620.88943  614.35522  607.22201  597.77806  584.46908  567.02069  544.41526  525.78321
  84.00000  620.92667  624.20783  624.14962  621.78495  625.86352  643.34656  657.17579  664.78367  660.42406  659.76167  660.77099  660.87344  662.83683  665.22964  668.79576  671.44826  677.26864  682.79063  688.00024  692.68512  697.44391  701.75636  705.36822  709.72058  712.26824  714.36107  716.50388  717.75588  717.82652  717.82935  719.53683  719.63005  717.26641  713.76281  709.52882  705.85834  702.76102  698.88795  694.33068  690.09694  686.76075  681.54464  674.66207  667.83566  661.58721  655.48378  649.30117  643.17400  637.22897  630.94978  623.89189  617.04033  610.44683  603.24464  593.75511  580.55566  563.55554  541.81635  524.32958
  85.00000  616.96958  620.22328  620.19679  617.89774  621.92264  638.99526  652.63011  660.17520  656.03097  655.43430  656.47645  656.62258  658.58966  660.98593  664.52381  667.17995  672.93756  678.41349  683.59067  688.25238  692.99012  697.29748  700.91043  705.25119  707.82015  709.94043  712.11244  713.40826  713.54172  713.59823  715.32087  715.45215  713.16991  709.74945  705.60779  702.00487  698.95178  695.12798  690.61726  686.40720  683.07806  677.88839  671.04708  664.24672  658.00238  651.88803  645.68904  639.53345  633.55061  627.23115  620.13720  613.23665  606.58413  599.31305  589.77784  576.68934  560.14638  539.30038  522.99862
  86.00000  613.06653  616.28800  616.29282  614.06135  618.03869  634.70652  648.14943  655.63514  651.70606  651.17238  652.24605  652.43398  654.40364  656.80230  660.31066  662.96924  668.66318  674.09198  679.23604  683.87355  688.58900  692.89010  696.50275  700.83062  703.41925  705.56556  707.76567  709.10404  709.29939  709.40851  711.14527  711.31355  709.11240  705.77480  701.72560  698.19013  695.18150  691.40769  686.94425  682.75811  679.43646  674.27396  667.47434  660.70005  654.45984  648.33462  642.11936  635.93533  629.91477  623.55541  616.42563  609.47632  602.76507  595.42524  585.84433  572.86801  556.79039  536.86363  521.78634
  87.00000  609.21470  612.39944  612.43523  610.27314  614.20867  630.47711  643.73048  651.16010  647.44595  646.97270  648.07664  648.30456  650.27575  652.67579  656.15343  658.81332  664.44276  669.82344  674.93376  679.54613  684.23816  688.53190  692.14296  696.45671  699.06352  701.23450  703.46166  704.84138  705.09773  705.25842  707.00832  707.21258  705.09221  701.83717  697.88050  694.41234  691.44837  687.72522  683.30972  679.14771  675.83398  670.69934  663.94182  657.19362  650.95754  644.82155  638.59011  632.37765  626.31946  619.92058  612.75525  605.75742  598.98776  591.57935  581.95276  569.08972  553.48494  534.50251  520.68890
  88.00000  605.41146  608.55532  608.62172  606.53068  610.42985  626.30404  639.37024  646.74694  643.24752  642.83224  643.96527  644.23148  646.20319  648.60366  652.04944  654.70959  660.27377  665.60543  670.68145  675.26781  679.93537  684.22071  687.82899  692.12750  694.75107  696.94544  699.19866  700.61860  700.93507  701.14634  702.90844  703.14774  701.10780  697.93500  694.07088  690.66987  687.75074  684.07884  679.71191  675.57421  672.26881  667.16268  660.44762  653.72553  647.49359  641.34690  635.09940  628.85854  622.76286  616.32483  609.12425  602.07817  595.25044  587.77370  578.10146  565.35268  550.22759  532.21360  519.70258
  89.00000  601.65441  604.75350  604.85018  602.83175  606.69966  622.18455  635.06590  642.39273  639.10783  638.74820  639.90921  640.21206  642.18335  644.58336  647.99622  650.65562  656.15387  661.43569  666.47688  671.03645  675.67855  679.95456  683.55893  687.84115  690.48015  692.69672  694.97505  696.43414  696.80987  697.07078  698.84422  699.11764  697.15776  694.06684  690.29523  686.96120  684.08705  680.46696  676.14916  672.03597  668.73926  663.66224  656.98999  650.29401  644.06622  637.90893  631.64548  625.37627  619.24324  612.76647  605.53095  598.43692  591.55150  584.00668  574.28890  561.65520  547.01603  529.99367  518.82381
  90.00000  597.94132  600.99203  601.11868  599.17427  603.01575  618.11610  630.81486  638.09475  635.02415  634.71795  635.90588  636.24382  638.21379  640.61250  643.99145  646.64917  652.08088  657.31209  662.31800  666.85005  671.46581  675.73160  679.33102  683.59599  686.24917  688.48680  690.78935  692.28656  692.72073  693.03036  694.81432  695.12098  693.24078  690.23137  686.55220  683.28494  680.45590  676.88811  672.61995  668.53143  665.24377  660.19643  653.56729  646.89743  640.67381  634.50602  628.22674  621.92924  615.75905  609.24394  601.97379  594.83214  587.88943  580.27683  570.51365  557.99575  543.84810  527.83959  518.04913
  91.00000  594.27013  597.26914  597.42544  595.55634  599.37590  614.09631  626.61474  633.85046  630.99391  630.73906  631.95291  632.32446  634.29226  636.68886  640.03299  642.68815  648.05277  653.23270  658.20292  662.70679  667.29538  671.55013  675.14363  679.39046  682.05665  684.31427  686.64019  688.17454  688.66634  689.02383  690.81753  691.15661  689.35567  686.42737  682.84053  679.63982  676.85597  673.34092  669.12288  665.05918  661.78091  656.76377  650.17802  643.53427  637.31484  631.13664  624.84166  618.51598  612.30879  605.75576  598.45134  591.26242  584.26284  576.58281  566.77439  554.37288  540.72179  525.74840  517.37522
  92.00000  590.63895  593.58316  593.76881  591.97620  595.77810  610.12300  622.46329  629.65752  627.01475  626.80923  628.04807  628.45181  630.41663  632.81040  636.11883  638.77061  644.06767  649.19571  654.12987  658.60494  663.16562  667.40857  670.99526  675.22313  677.90122  680.17782  682.52631  684.09687  684.64553  685.05000  686.85273  687.22344  685.50134  682.65374  679.15904  676.02465  673.28605  669.82414  665.65664  661.61789  658.34933  653.36286  646.82076  640.20311  633.98788  627.79939  621.48886  615.13509  608.89113  602.30060  594.96225  587.72642  580.67042  572.92333  563.06990  550.78527  537.63522  523.71729  516.79885
  93.00000  587.04603  589.93260  590.14731  588.43224  592.22044  606.19414  618.35846  625.51373  623.08442  622.92634  624.18927  624.62387  626.58495  628.97518  632.24712  634.89475  640.12384  645.19942  650.09721  654.54295  659.07501  663.30547  666.88451  671.09266  673.78162  676.07625  678.44655  680.05242  680.65717  681.10782  682.91890  683.32048  681.67676  678.90943  675.50667  672.43833  669.74503  666.33661  662.22003  658.20635  654.94778  649.99245  643.49421  636.90265  630.69164  624.49296  618.16704  611.78530  605.50478  598.87719  591.50528  584.22293  577.11097  569.29724  559.39904  547.23169  534.58660  521.74354  516.31693
  94.00000  583.48973  586.31606  586.55953  584.92296  588.70118  602.30786  614.29833  621.41706  619.20086  619.08840  620.37457  620.83875  622.79539  625.18141  628.41613  631.05889  636.21964  641.24229  646.10343  650.51932  655.02215  659.23946  662.81008  666.99782  669.69669  672.00845  674.39983  676.04016  676.70025  677.19630  679.01508  679.44682  677.88102  675.19350  671.88243  668.87986  666.23188  662.87724  658.81191  654.82341  651.57512  646.65132  640.19715  633.63165  627.42490  621.21615  614.87498  608.46541  602.14858  595.48436  588.07927  580.75082  573.58338  565.70344  555.76076  543.71098  531.57429  519.82459  515.92647
  95.00000  579.96858  582.73225  583.00421  581.44697  585.21869  598.46243  610.28112  617.36561  615.36210  615.29356  616.60217  617.09471  619.04622  621.42743  624.62424  627.26147  632.35359  637.32287  642.14711  646.53272  651.00573  655.20931  658.77080  662.93748  665.64534  667.97338  670.38516  672.05914  672.77384  673.31451  675.14041  675.60161  674.11324  671.50507  668.28541  665.34832  662.74564  659.44504  655.43126  651.46803  648.23027  643.33839  636.92845  630.38899  624.18652  617.96783  611.61156  605.17433  598.82143  592.12103  584.68315  577.30902  570.08660  562.14094  552.15408  540.22209  528.59672  517.95798  515.62458
  96.00000  576.48117  579.18001  579.48018  578.00299  581.77146  594.65622  606.30519  613.35761  611.56634  611.54009  612.87036  613.39011  615.33587  617.71167  620.86996  623.50103  628.52426  633.43980  638.22695  642.58186  647.02456  651.21384  654.76553  658.91059  661.62658  663.97011  666.40163  668.10846  668.87707  669.46162  671.29407  671.78407  670.37264  667.84333  664.71475  661.84284  659.28543  656.03908  652.07710  648.13923  644.91224  640.05261  633.68705  627.17360  620.97544  614.74694  608.37575  601.91101  595.52233  588.78619  581.31593  573.89654  566.61967  558.60879  548.57811  536.76401  525.65246  516.14136  515.40850
  97.00000  573.02623  575.65824  575.98634  574.58984  578.35809  590.88776  602.36900  609.39143  607.81187  607.82635  609.17757  609.72342  611.66283  614.03270  617.15190  619.77622  624.73037  629.59185  634.34172  638.66559  643.07749  647.25197  650.79326  654.91616  657.63949  659.99774  662.44837  664.18732  665.00912  665.63684  667.47532  667.99350  666.65848  664.20754  661.16969  658.36262  655.85044  652.65851  648.74855  644.83609  641.62009  636.79304  630.47198  623.98451  617.79069  611.55251  605.16657  598.67451  592.25032  585.47891  577.97666  570.51249  563.18170  555.10612  545.03199  533.33584  522.74013  514.37251  515.27552
