Polar coordinates (r,theta) as a function of time (origin in the center of the hemisphere)

Angular position
   theta1_[deg]   ..........   theta59_[deg]
              0.00000    2.30770    4.61537    6.92308    9.23076   11.53846   13.84615   16.15385   18.46154   20.76922   23.07693   25.38459   27.69235   29.99999   32.30761   34.61535   36.92316   39.23071   41.53852   43.84614   46.15391   48.46158   50.76920   53.07696   55.38465   57.69245   59.99996   62.30765   64.61545   66.92302   69.23081   71.53845   73.84626   76.15380   78.46165   80.76921   83.07696   85.38453   87.69242   90.00000   91.80880   93.61377   95.41182   97.19925   98.97270  100.72877  102.46490  104.17809  105.86579  107.52549  109.15559  110.75410  112.31952  113.85041  115.34617  116.80583  118.22886  119.61477  120.96376

Radius as a function of time for the above positions
  time_[s]       r1_[mm]   ..........      r59_[mm]
   0.00000   25.00000   25.00000   25.00000   25.00000   25.00000   25.00000   25.00000   25.00000   25.00000   25.00000   25.00000   25.00000   25.00000   25.00000   25.00000   25.00000   25.00000   25.00000   25.00000   25.00000   25.00000   25.00000   25.00000   25.00000   25.00000   25.00000   25.00000   25.00000   25.00000   25.00000   25.00000   25.00000   25.00000   25.00000   25.00000   25.00000   25.00000   25.00000   25.00000   25.00000   25.01246   25.04981   25.11194   25.19866   25.30972   25.44479   25.60352   25.78545   25.99010   26.21691   26.46536   26.73483   27.02468   27.33423   27.66289   28.00995   28.37474   28.75654   29.15476
   0.10000   24.99527   24.99528   24.99532   24.99538   24.99546   24.99556   24.99568   24.99582   24.99598   24.99616   24.99636   24.99659   24.99682   24.99706   24.99731   24.99758   24.99785   24.99813   24.99841   24.99869   24.99896   24.99922   24.99948   24.99973   24.99995   25.00000   25.00000   25.00000   25.00000   25.00000   25.00000   25.00000   25.00000   25.00000   25.00000   25.00000   25.00000   25.00000   25.00000   25.00000   25.01246   25.04981   25.11194   25.19866   25.30972   25.44479   25.60352   25.78545   25.99010   26.21691   26.46536   26.73483   27.02468   27.33423   27.66289   28.00995   28.37474   28.75654   29.15476
   0.20000   24.99055   24.99057   24.99064   24.99075   24.99091   24.99111   24.99136   24.99165   24.99197   24.99233   24.99273   24.99318   24.99364   24.99412   24.99462   24.99516   24.99571   24.99626   24.99681   24.99737   24.99791   24.99845   24.99896   24.99945   24.99990   25.00000   25.00000   25.00000   25.00000   25.00000   25.00000   25.00000   25.00000   25.00000   25.00000   25.00000   25.00000   25.00000   25.00000   25.00000   25.01246   25.04981   25.11194   25.19866   25.30972   25.44479   25.60352   25.78545   25.99010   26.21691   26.46536   26.73483   27.02468   27.33423   27.66289   28.00995   28.37474   28.75654   29.15476
   0.30000   24.98582   24.98585   24.98595   24.98613   24.98637   24.98667   24.98704   24.98747   24.98795   24.98849   24.98909   24.98976   24.99046   24.99118   24.99193   24.99274   24.99356   24.99439   24.99522   24.99606   24.99687   24.99767   24.99844   24.99918   24.99986   25.00000   25.00000   25.00000   25.00000   25.00000   25.00000   25.00000   25.00000   25.00000   25.00000   25.00000   25.00000   25.00000   25.00000   25.00000   25.01246   25.04981   25.11194   25.19866   25.30972   25.44479   25.60352   25.78545   25.99010   26.21691   26.46536   26.73483   27.02468   27.33423   27.66289   28.00995   28.37474   28.75654   29.15476
   0.40000   24.98109   24.98113   24.98127   24.98150   24.98182   24.98222   24.98272   24.98329   24.98393   24.98465   24.98545   24.98635   24.98728   24.98824   24.98924   24.99032   24.99141   24.99251   24.99363   24.99475   24.99583   24.99689   24.99792   24.99890   24.99981   25.00000   25.00000   25.00000   25.00000   25.00000   25.00000   25.00000   25.00000   25.00000   25.00000   25.00000   25.00000   25.00000   25.00000   25.00000   25.01246   25.04981   25.11194   25.19866   25.30972   25.44479   25.60352   25.78545   25.99010   26.21691   26.46536   26.73483   27.02468   27.33423   27.66289   28.00995   28.37474   28.75654   29.15476
   0.50000   24.97636   24.97642   24.97659   24.97688   24.97728   24.97778   24.97840   24.97912   24.97991   24.98081   24.98181   24.98294   24.98410   24.98530   24.98655   24.98790   24.98927   24.99064   24.99203   24.99343   24.99479   24.99611   24.99740   24.99863   24.99976   25.00000   25.00000   25.00000   25.00000   25.00000   25.00000   25.00000   25.00000   25.00000   25.00000   25.00000   25.00000   25.00000   25.00000   25.00000   25.01246   25.04981   25.11194   25.19866   25.30972   25.44479   25.60352   25.78545   25.99010   26.21691   26.46536   26.73483   27.02468   27.33423   27.66289   28.00995   28.37474   28.75654   29.15476
   0.60000   24.97164   24.97170   24.97191   24.97225   24.97273   24.97334   24.97408   24.97494   24.97590   24.97698   24.97818   24.97953   24.98092   24.98236   24.98386   24.98548   24.98712   24.98877   24.99044   24.99212   24.99374   24.99534   24.99688   24.99835   24.99971   25.00000   25.00000   25.00000   25.00000   25.00000   25.00000   25.00000   25.00000   25.00000   25.00000   25.00000   25.00000   25.00000   25.00000   25.00000   25.01246   25.04981   25.11194   25.19866   25.30972   25.44479   25.60352   25.78545   25.99010   26.21691   26.46536   26.73483   27.02468   27.33423   27.66289   28.00995   28.37474   28.75654   29.15476
   0.70000   24.96691   24.96698   24.96722   24.96763   24.96819   24.96889   24.96976   24.97076   24.97188   24.97314   24.97454   24.97611   24.97774   24.97942   24.98117   24.98307   24.98498   24.98690   24.98885   24.99080   24.99270   24.99456   24.99636   24.99808   24.99966   25.00000   25.00000   25.00000   25.00000   25.00000   25.00000   25.00000   25.00000   25.00000   25.00000   25.00000   25.00000   25.00000   25.00000   25.00000   25.01246   25.04981   25.11194   25.19866   25.30972   25.44479   25.60352   25.78545   25.99010   26.21691   26.46536   26.73483   27.02468   27.33423   27.66289   28.00995   28.37474   28.75654   29.15476
   0.80000   24.96218   24.96227   24.96254   24.96300   24.96364   24.96445   24.96544   24.96659   24.96786   24.96930   24.97090   24.97270   24.97456   24.97648   24.97848   24.98065   24.98283   24.98503   24.98725   24.98949   24.99166   24.99378   24.99584   24.99780   24.99961   25.00000   25.00000   25.00000   25.00000   25.00000   25.00000   25.00000   25.00000   25.00000   25.00000   25.00000   25.00000   25.00000   25.00000   25.00000   25.01246   25.04981   25.11194   25.19866   25.30972   25.44479   25.60352   25.78545   25.99010   26.21691   26.46536   26.73483   27.02468   27.33423   27.66289   28.00995   28.37474   28.75654   29.15476
   0.90000   24.95745   24.95755   24.95786   24.95838   24.95910   24.96001   24.96113   24.96241   24.96384   24.96546   24.96727   24.96929   24.97138   24.97353   24.97579   24.97823   24.98068   24.98316   24.98566   24.98818   24.99062   24.99301   24.99532   24.99753   24.99957   25.00000   25.00000   25.00000   25.00000   25.00000   25.00000   25.00000   25.00000   25.00000   25.00000   25.00000   25.00000   25.00000   25.00000   25.00000   25.01246   25.04981   25.11194   25.19866   25.30972   25.44479   25.60352   25.78545   25.99010   26.21691   26.46536   26.73483   27.02468   27.33423   27.66289   28.00995   28.37474   28.75654   29.15476
   1.00000   24.95273   24.95283   24.95318   24.95375   24.95456   24.95556   24.95681   24.95823   24.95983   24.96163   24.96363   24.96588   24.96820   24.97059   24.97310   24.97581   24.97854   24.98129   24.98407   24.98686   24.98957   24.99223   24.99480   24.99725   24.99952   25.00000   25.00000   25.00000   25.00000   25.00000   25.00000   25.00000   25.00000   25.00000   25.00000   25.00000   25.00000   25.00000   25.00000   25.00000   25.01246   25.04981   25.11194   25.19866   25.30972   25.44479   25.60352   25.78545   25.99010   26.21691   26.46536   26.73483   27.02468   27.33423   27.66289   28.00995   28.37474   28.75654   29.15476
   1.10000   24.94800   24.94812   24.94849   24.94913   24.95001   24.95112   24.95249   24.95406   24.95581   24.95779   24.95999   24.96246   24.96502   24.96765   24.97041   24.97339   24.97639   24.97941   24.98247   24.98555   24.98853   24.99145   24.99427   24.99698   24.99947   25.00000   25.00000   25.00000   25.00000   25.00000   25.00000   25.00000   25.00000   25.00000   25.00000   25.00000   25.00000   25.00000   25.00000   25.00000   25.01246   25.04981   25.11194   25.19866   25.30972   25.44479   25.60352   25.78545   25.99010   26.21691   26.46536   26.73483   27.02468   27.33423   27.66289   28.00995   28.37474   28.75654   29.15476
   1.20000   24.94327   24.94340   24.94381   24.94450   24.94547   24.94667   24.94817   24.94988   24.95179   24.95395   24.95636   24.95905   24.96184   24.96471   24.96772   24.97097   24.97424   24.97754   24.98088   24.98424   24.98749   24.99067   24.99375   24.99670   24.99942   25.00000   25.00000   25.00000   25.00000   25.00000   25.00000   25.00000   25.00000   25.00000   25.00000   25.00000   25.00000   25.00000   25.00000   25.00000   25.01246   25.04981   25.11194   25.19866   25.30972   25.44479   25.60352   25.78545   25.99010   26.21691   26.46536   26.73483   27.02468   27.33423   27.66289   28.00995   28.37474   28.75654   29.15476
   1.30000   24.93854   24.93868   24.93913   24.93988   24.94092   24.94223   24.94385   24.94570   24.94777   24.95011   24.95272   24.95564   24.95866   24.96177   24.96503   24.96855   24.97210   24.97567   24.97929   24.98292   24.98645   24.98990   24.99323   24.99643   24.99937   25.00000   25.00000   25.00000   25.00000   25.00000   25.00000   25.00000   25.00000   25.00000   25.00000   25.00000   25.00000   25.00000   25.00000   25.00000   25.01246   25.04981   25.11194   25.19866   25.30972   25.44479   25.60352   25.78545   25.99010   26.21691   26.46536   26.73483   27.02468   27.33423   27.66289   28.00995   28.37474   28.75654   29.15476
   1.40000   24.93382   24.93397   24.93445   24.93525   24.93638   24.93779   24.93953   24.94153   24.94376   24.94628   24.94908   24.95223   24.95548   24.95883   24.96234   24.96613   24.96995   24.97380   24.97769   24.98161   24.98540   24.98912   24.99271   24.99615   24.99932   25.00000   25.00000   25.00000   25.00000   25.00000   25.00000   25.00000   25.00000   25.00000   25.00000   25.00000   25.00000   25.00000   25.00000   25.00000   25.01246   25.04981   25.11194   25.19866   25.30972   25.44479   25.60352   25.78545   25.99010   26.21691   26.46536   26.73483   27.02468   27.33423   27.66289   28.00995   28.37474   28.75654   29.15476
   1.50000   24.92909   24.92925   24.92976   24.93063   24.93183   24.93334   24.93521   24.93735   24.93974   24.94244   24.94544   24.94881   24.95230   24.95589   24.95965   24.96371   24.96780   24.97193   24.97610   24.98029   24.98436   24.98834   24.99219   24.99588   24.99928   25.00000   25.00000   25.00000   25.00000   25.00000   25.00000   25.00000   25.00000   25.00000   25.00000   25.00000   25.00000   25.00000   25.00000   25.00000   25.01246   25.04981   25.11194   25.19866   25.30972   25.44479   25.60352   25.78545   25.99010   26.21691   26.46536   26.73483   27.02468   27.33423   27.66289   28.00995   28.37474   28.75654   29.15476
   1.60000   24.92436   24.92454   24.92508   24.92601   24.92729   24.92890   24.93089   24.93317   24.93572   24.93860   24.94181   24.94540   24.94912   24.95295   24.95695   24.96129   24.96566   24.97006   24.97451   24.97898   24.98332   24.98757   24.99167   24.99561   24.99923   25.00000   25.00000   25.00000   25.00000   25.00000   25.00000   25.00000   25.00000   25.00000   25.00000   25.00000   25.00000   25.00000   25.00000   25.00000   25.01246   25.04981   25.11194   25.19866   25.30972   25.44479   25.60352   25.78545   25.99010   26.21691   26.46536   26.73483   27.02468   27.33423   27.66289   28.00995   28.37474   28.75654   29.15476
   1.70000   24.91963   24.91982   24.92040   24.92138   24.92274   24.92445   24.92657   24.92900   24.93170   24.93476   24.93817   24.94199   24.94594   24.95001   24.95426   24.95887   24.96351   24.96819   24.97291   24.97767   24.98228   24.98679   24.99115   24.99533   24.99918   25.00000   25.00000   25.00000   25.00000   25.00000   25.00000   25.00000   25.00000   25.00000   25.00000   25.00000   25.00000   25.00000   25.00000   25.00000   25.01246   25.04981   25.11194   25.19866   25.30972   25.44479   25.60352   25.78545   25.99010   26.21691   26.46536   26.73483   27.02468   27.33423   27.66289   28.00995   28.37474   28.75654   29.15476
   1.80000   24.91491   24.91510   24.91572   24.91676   24.91820   24.92001   24.92225   24.92482   24.92769   24.93093   24.93453   24.93858   24.94276   24.94707   24.95157   24.95645   24.96136   24.96631   24.97132   24.97635   24.98123   24.98601   24.99063   24.99506   24.99913   25.00000   25.00000   25.00000   25.00000   25.00000   25.00000   25.00000   25.00000   25.00000   25.00000   25.00000   25.00000   25.00000   25.00000   25.00000   25.01246   25.04981   25.11194   25.19866   25.30972   25.44479   25.60352   25.78545   25.99010   26.21691   26.46536   26.73483   27.02468   27.33423   27.66289   28.00995   28.37474   28.75654   29.15476
   1.90000   24.91018   24.91039   24.91103   24.91213   24.91366   24.91557   24.91793   24.92064   24.92367   24.92709   24.93090   24.93517   24.93958   24.94413   24.94888   24.95404   24.95922   24.96444   24.96973   24.97504   24.98019   24.98523   24.99011   24.99478   24.99908   25.00000   25.00000   25.00000   25.00000   25.00000   25.00000   25.00000   25.00000   25.00000   25.00000   25.00000   25.00000   25.00000   25.00000   25.00000   25.01246   25.04981   25.11194   25.19866   25.30972   25.44479   25.60352   25.78545   25.99010   26.21691   26.46536   26.73483   27.02468   27.33423   27.66289   28.00995   28.37474   28.75654   29.15476
   2.00000   24.90545   24.90567   24.90635   24.90751   24.90911   24.91112   24.91361   24.91647   24.91965   24.92325   24.92726   24.93175   24.93640   24.94119   24.94619   24.95162   24.95707   24.96257   24.96813   24.97373   24.97915   24.98446   24.98959   24.99451   24.99903   25.00000   25.00000   25.00000   25.00000   25.00000   25.00000   25.00000   25.00000   25.00000   25.00000   25.00000   25.00000   25.00000   25.00000   25.00000   25.01246   25.04981   25.11194   25.19866   25.30972   25.44479   25.60352   25.78545   25.99010   26.21691   26.46536   26.73483   27.02468   27.33423   27.66289   28.00995   28.37474   28.75654   29.15476
   3.00000   24.85818   24.85850   24.85953   24.86126   24.86367   24.86668   24.87042   24.87470   24.87948   24.88488   24.89089   24.89763   24.90460   24.91178   24.91929   24.92742   24.93561   24.94386   24.95220   24.96059   24.96872   24.97668   24.98439   24.99176   24.99855   25.00000   25.00000   25.00000   25.00000   25.00000   25.00000   25.00000   25.00000   25.00000   25.00000   25.00000   25.00000   25.00000   25.00000   25.00000   25.01246   25.04981   25.11194   25.19866   25.30972   25.44479   25.60352   25.78545   25.99010   26.21691   26.46536   26.73483   27.02468   27.33423   27.66289   28.00995   28.37474   28.75654   29.15476
   4.00000   24.81090   24.81134   24.81270   24.81501   24.81822   24.82224   24.82722   24.83293   24.83931   24.84650   24.85452   24.86351   24.87280   24.88238   24.89239   24.90323   24.91414   24.92514   24.93627   24.94745   24.95830   24.96891   24.97918   24.98901   24.99807   25.00000   25.00000   25.00000   25.00000   25.00000   25.00000   25.00000   25.00000   25.00000   25.00000   25.00000   25.00000   25.00000   25.00000   25.00000   25.01246   25.04981   25.11194   25.19866   25.30972   25.44479   25.60352   25.78545   25.99010   26.21691   26.46536   26.73483   27.02468   27.33423   27.66289   28.00995   28.37474   28.75654   29.15476
   6.00000   24.71636   24.71701   24.71906   24.72252   24.72733   24.73337   24.74083   24.74940   24.75896   24.76976   24.78178   24.79526   24.80920   24.82357   24.83858   24.85485   24.87121   24.88771   24.90440   24.92118   24.93745   24.95337   24.96877   24.98352   24.99710   25.00000   25.00000   25.00000   25.00000   25.00000   25.00000   25.00000   25.00000   25.00000   25.00000   25.00000   25.00000   25.00000   25.00000   25.00000   25.01246   25.04981   25.11194   25.19866   25.30972   25.44479   25.60352   25.78545   25.99010   26.21691   26.46536   26.73483   27.02468   27.33423   27.66289   28.00995   28.37474   28.75654   29.15476
   7.00000   24.66908   24.66984   24.67223   24.67627   24.68189   24.68893   24.69764   24.70764   24.71879   24.73138   24.74541   24.76113   24.77740   24.79416   24.81168   24.83066   24.84975   24.86900   24.88847   24.90804   24.92702   24.94560   24.96357   24.98077   24.99662   25.00000   25.00000   25.00000   25.00000   25.00000   25.00000   25.00000   25.00000   25.00000   25.00000   25.00000   25.00000   25.00000   25.00000   25.00000   25.01246   25.04981   25.11194   25.19866   25.30972   25.44479   25.60352   25.78545   25.99010   26.21691   26.46536   26.73483   27.02468   27.33423   27.66289   28.00995   28.37474   28.75654   29.15476
   8.00000   24.62181   24.62268   24.62541   24.63003   24.63645   24.64449   24.65444   24.66587   24.67861   24.69301   24.70904   24.72701   24.74560   24.76475   24.78477   24.80646   24.82829   24.85029   24.87254   24.89490   24.91660   24.93783   24.95836   24.97803   24.99614   25.00000   25.00000   25.00000   25.00000   25.00000   25.00000   25.00000   25.00000   25.00000   25.00000   25.00000   25.00000   25.00000   25.00000   25.00000   25.01246   25.04981   25.11194   25.19866   25.30972   25.44479   25.60352   25.78545   25.99010   26.21691   26.46536   26.73483   27.02468   27.33423   27.66289   28.00995   28.37474   28.75654   29.15476
   9.00000   24.57453   24.57551   24.57858   24.58378   24.59100   24.60005   24.61125   24.62410   24.63844   24.65463   24.67267   24.69289   24.71380   24.73535   24.75787   24.78227   24.80682   24.83157   24.85660   24.88177   24.90617   24.93005   24.95316   24.97528   24.99566   25.00000   25.00000   25.00000   25.00000   25.00000   25.00000   25.00000   25.00000   25.00000   25.00000   25.00000   25.00000   25.00000   25.00000   25.00000   25.01246   25.04981   25.11194   25.19866   25.30972   25.44479   25.60352   25.78545   25.99010   26.21691   26.46536   26.73483   27.02468   27.33423   27.66289   28.00995   28.37474   28.75654   29.15476
  10.00000   24.52726   24.52834   24.53176   24.53753   24.54556   24.55561   24.56806   24.58234   24.59826   24.61626   24.63630   24.65876   24.68200   24.70594   24.73097   24.75808   24.78536   24.81286   24.84067   24.86863   24.89574   24.92228   24.94795   24.97253   24.99517   25.00000   25.00000   25.00000   25.00000   25.00000   25.00000   25.00000   25.00000   25.00000   25.00000   25.00000   25.00000   25.00000   25.00000   25.00000   25.01246   25.04981   25.11194   25.19866   25.30972   25.44479   25.60352   25.78545   25.99010   26.21691   26.46536   26.73483   27.02468   27.33423   27.66289   28.00995   28.37474   28.75654   29.15476
  11.00000   24.47999   24.48118   24.48493   24.49128   24.50011   24.51117   24.52486   24.54057   24.55809   24.57789   24.59993   24.62464   24.65020   24.67654   24.70406   24.73389   24.76389   24.79414   24.82474   24.85549   24.88532   24.91451   24.94275   24.96979   24.99469   25.00000   25.00000   25.00000   25.00000   25.00000   25.00000   25.00000   25.00000   25.00000   25.00000   25.00000   25.00000   25.00000   25.00000   25.00000   25.01246   25.04981   25.11194   25.19866   25.30972   25.44479   25.60352   25.78545   25.99010   26.21691   26.46536   26.73483   27.02468   27.33423   27.66289   28.00995   28.37474   28.75654   29.15476
  12.00000   24.43271   24.43401   24.43811   24.44504   24.45467   24.46673   24.48167   24.49880   24.51792   24.53951   24.56356   24.59052   24.61840   24.64713   24.67716   24.70970   24.74243   24.77543   24.80881   24.84236   24.87489   24.90674   24.93754   24.96704   24.99421   25.00000   25.00000   25.00000   25.00000   25.00000   25.00000   25.00000   25.00000   25.00000   25.00000   25.00000   25.00000   25.00000   25.00000   25.00000   25.01246   25.04981   25.11194   25.19866   25.30972   25.44479   25.60352   25.78545   25.99010   26.21691   26.46536   26.73483   27.02468   27.33423   27.66289   28.00995   28.37474   28.75654   29.15476
  13.00000   24.38544   24.38685   24.39129   24.39879   24.40922   24.42229   24.43847   24.45704   24.47774   24.50114   24.52719   24.55639   24.58660   24.61772   24.65026   24.68550   24.72097   24.75671   24.79287   24.82922   24.86447   24.89897   24.93234   24.96429   24.99372   25.00000   25.00000   25.00000   25.00000   25.00000   25.00000   25.00000   25.00000   25.00000   25.00000   25.00000   25.00000   25.00000   25.00000   25.00000   25.01246   25.04981   25.11194   25.19866   25.30972   25.44479   25.60352   25.78545   25.99010   26.21691   26.46536   26.73483   27.02468   27.33423   27.66289   28.00995   28.37474   28.75654   29.15476
  14.00000   24.33816   24.33968   24.34446   24.35254   24.36378   24.37786   24.39528   24.41527   24.43757   24.46276   24.49082   24.52227   24.55480   24.58832   24.62335   24.66131   24.69950   24.73800   24.77694   24.81608   24.85404   24.89120   24.92713   24.96155   24.99324   25.00000   25.00000   25.00000   25.00000   25.00000   25.00000   25.00000   25.00000   25.00000   25.00000   25.00000   25.00000   25.00000   25.00000   25.00000   25.01246   25.04981   25.11194   25.19866   25.30972   25.44479   25.60352   25.78545   25.99010   26.21691   26.46536   26.73483   27.02468   27.33423   27.66289   28.00995   28.37474   28.75654   29.15476
  15.00000   24.29089   24.29252   24.29764   24.30630   24.31833   24.33342   24.35208   24.37350   24.39740   24.42439   24.45445   24.48815   24.52300   24.55891   24.59645   24.63712   24.67804   24.71928   24.76101   24.80295   24.84362   24.88342   24.92193   24.95880   24.99276   25.00000   25.00000   25.00000   25.00000   25.00000   25.00000   25.00000   25.00000   25.00000   25.00000   25.00000   25.00000   25.00000   25.00000   25.00000   25.01246   25.04981   25.11194   25.19866   25.30972   25.44479   25.60352   25.78545   25.99010   26.21691   26.46536   26.73483   27.02468   27.33423   27.66289   28.00995   28.37474   28.75654   29.15476
  16.00000   24.24362   24.24535   24.25081   24.26005   24.27289   24.28898   24.30889   24.33174   24.35722   24.38602   24.41808   24.45402   24.49120   24.52951   24.56955   24.61293   24.65657   24.70057   24.74508   24.78981   24.83319   24.87565   24.91672   24.95605   24.99228   25.00000   25.00000   25.00000   25.00000   25.00000   25.00000   25.00000   25.00000   25.00000   25.00000   25.00000   25.00000   25.00000   25.00000   25.00000   25.01246   25.04981   25.11194   25.19866   25.30972   25.44479   25.60352   25.78545   25.99010   26.21691   26.46536   26.73483   27.02468   27.33423   27.66289   28.00995   28.37474   28.75654   29.15476
  17.00000   24.19634   24.19819   24.20399   24.21380   24.22745   24.24454   24.26569   24.28997   24.31705   24.34764   24.38171   24.41990   24.45940   24.50010   24.54264   24.58874   24.63511   24.68186   24.72914   24.77667   24.82276   24.86788   24.91152   24.95331   24.99179   25.00000   25.00000   25.00000   25.00000   25.00000   25.00000   25.00000   25.00000   25.00000   25.00000   25.00000   25.00000   25.00000   25.00000   25.00000   25.01246   25.04981   25.11194   25.19866   25.30972   25.44479   25.60352   25.78545   25.99010   26.21691   26.46536   26.73483   27.02468   27.33423   27.66289   28.00995   28.37474   28.75654   29.15476
  18.00000   24.14907   24.15102   24.15717   24.16756   24.18200   24.20010   24.22250   24.24821   24.27688   24.30927   24.34534   24.38577   24.42760   24.47070   24.51574   24.56454   24.61364   24.66314   24.71321   24.76354   24.81234   24.86011   24.90631   24.95056   24.99131   25.00000   25.00000   25.00000   25.00000   25.00000   25.00000   25.00000   25.00000   25.00000   25.00000   25.00000   25.00000   25.00000   25.00000   25.00000   25.01246   25.04981   25.11194   25.19866   25.30972   25.44479   25.60352   25.78545   25.99010   26.21691   26.46536   26.73483   27.02468   27.33423   27.66289   28.00995   28.37474   28.75654   29.15476
  19.00000   24.10179   24.10385   24.11034   24.12131   24.13656   24.15566   24.17931   24.20644   24.23670   24.27089   24.30897   24.35165   24.39580   24.44129   24.48884   24.54035   24.59218   24.64443   24.69728   24.75040   24.80191   24.85234   24.90111   24.94781   24.99083   25.00000   25.00000   25.00000   25.00000   25.00000   25.00000   25.00000   25.00000   25.00000   25.00000   25.00000   25.00000   25.00000   25.00000   25.00000   25.01246   25.04981   25.11194   25.19866   25.30972   25.44479   25.60352   25.78545   25.99010   26.21691   26.46536   26.73483   27.02468   27.33423   27.66289   28.00995   28.37474   28.75654   29.15476
  20.00000   24.05452   24.05669   24.06352   24.07506   24.09111   24.11122   24.13611   24.16467   24.19653   24.23252   24.27260   24.31753   24.36400   24.41188   24.46193   24.51616   24.57072   24.62571   24.68134   24.73726   24.79149   24.84457   24.89590   24.94507   24.99035   25.00000   25.00000   25.00000   25.00000   25.00000   25.00000   25.00000   25.00000   25.00000   25.00000   25.00000   25.00000   25.00000   25.00000   25.00000   25.01246   25.04981   25.11194   25.19866   25.30972   25.44479   25.60352   25.78545   25.99010   26.21691   26.46536   26.73483   27.02468   27.33423   27.66289   28.00995   28.37474   28.75654   29.15476
  21.00000   24.00725   24.00952   24.01669   24.02882   24.04567   24.06678   24.09292   24.12291   24.15636   24.19415   24.23623   24.28340   24.33220   24.38248   24.43503   24.49197   24.54925   24.60700   24.66541   24.72413   24.78106   24.83679   24.89070   24.94232   24.98986   25.00000   25.00000   25.00000   25.00000   25.00000   25.00000   25.00000   25.00000   25.00000   25.00000   25.00000   25.00000   25.00000   25.00000   25.00000   25.01246   25.04981   25.11194   25.19866   25.30972   25.44479   25.60352   25.78545   25.99010   26.21691   26.46536   26.73483   27.02468   27.33423   27.66289   28.00995   28.37474   28.75654   29.15476
  22.00000   23.95997   23.96236   23.96987   23.98257   24.00022   24.02234   24.04972   24.08114   24.11618   24.15577   24.19986   24.24928   24.30040   24.35307   24.40813   24.46778   24.52779   24.58828   24.64948   24.71099   24.77064   24.82902   24.88549   24.93957   24.98938   25.00000   25.00000   25.00000   25.00000   25.00000   25.00000   25.00000   25.00000   25.00000   25.00000   25.00000   25.00000   25.00000   25.00000   25.00000   25.01246   25.04981   25.11194   25.19866   25.30972   25.44479   25.60352   25.78545   25.99010   26.21691   26.46536   26.73483   27.02468   27.33423   27.66289   28.00995   28.37474   28.75654   29.15476
  23.00000   23.91270   23.91519   23.92305   23.93632   23.95478   23.97791   24.00653   24.03937   24.07601   24.11740   24.16349   24.21516   24.26860   24.32367   24.38122   24.44358   24.50632   24.56957   24.63355   24.69785   24.76021   24.82125   24.88029   24.93683   24.98890   25.00000   25.00000   25.00000   25.00000   25.00000   25.00000   25.00000   25.00000   25.00000   25.00000   25.00000   25.00000   25.00000   25.00000   25.00000   25.01246   25.04981   25.11194   25.19866   25.30972   25.44479   25.60352   25.78545   25.99010   26.21691   26.46536   26.73483   27.02468   27.33423   27.66289   28.00995   28.37474   28.75654   29.15476
  24.00000   23.86543   23.86803   23.87622   23.89008   23.90934   23.93347   23.96333   23.99761   24.03583   24.07902   24.12712   24.18103   24.23680   24.29426   24.35432   24.41939   24.48486   24.55086   24.61761   24.68471   24.74979   24.81348   24.87508   24.93408   24.98841   25.00000   25.00000   25.00000   25.00000   25.00000   25.00000   25.00000   25.00000   25.00000   25.00000   25.00000   25.00000   25.00000   25.00000   25.00000   25.01246   25.04981   25.11194   25.19866   25.30972   25.44479   25.60352   25.78545   25.99010   26.21691   26.46536   26.73483   27.02468   27.33423   27.66289   28.00995   28.37474   28.75654   29.15476
  25.00000   23.81815   23.82086   23.82940   23.84383   23.86389   23.88903   23.92014   23.95584   23.99566   24.04065   24.09075   24.14691   24.20500   24.26485   24.32742   24.39520   24.46339   24.53214   24.60168   24.67158   24.73936   24.80571   24.86988   24.93133   24.98793   25.00000   25.00000   25.00000   25.00000   25.00000   25.00000   25.00000   25.00000   25.00000   25.00000   25.00000   25.00000   25.00000   25.00000   25.00000   25.01246   25.04981   25.11194   25.19866   25.30972   25.44479   25.60352   25.78545   25.99010   26.21691   26.46536   26.73483   27.02468   27.33423   27.66289   28.00995   28.37474   28.75654   29.15476
  26.00000   23.77088   23.77370   23.78257   23.79758   23.81845   23.84459   23.87694   23.91407   23.95549   24.00227   24.05438   24.11279   24.17320   24.23545   24.30051   24.37101   24.44193   24.51343   24.58575   24.65844   24.72893   24.79794   24.86467   24.92859   24.98745   25.00000   25.00000   25.00000   25.00000   25.00000   25.00000   25.00000   25.00000   25.00000   25.00000   25.00000   25.00000   25.00000   25.00000   25.00000   25.01246   25.04981   25.11194   25.19866   25.30972   25.44479   25.60352   25.78545   25.99010   26.21691   26.46536   26.73483   27.02468   27.33423   27.66289   28.00995   28.37474   28.75654   29.15476
  27.00000   23.72360   23.72653   23.73575   23.75134   23.77300   23.80015   23.83375   23.87231   23.91531   23.96390   24.01801   24.07866   24.14140   24.20604   24.27361   24.34682   24.42047   24.49471   24.56981   24.64530   24.71851   24.79016   24.85947   24.92584   24.98697   25.00000   25.00000   25.00000   25.00000   25.00000   25.00000   25.00000   25.00000   25.00000   25.00000   25.00000   25.00000   25.00000   25.00000   25.00000   25.01246   25.04981   25.11194   25.19866   25.30972   25.44479   25.60352   25.78545   25.99010   26.21691   26.46536   26.73483   27.02468   27.33423   27.66289   28.00995   28.37474   28.75654   29.15476
  28.00000   23.67633   23.67936   23.68893   23.70509   23.72756   23.75571   23.79056   23.83054   23.87514   23.92553   23.98164   24.04454   24.10960   24.17664   24.24671   24.32262   24.39900   24.47600   24.55388   24.63217   24.70808   24.78239   24.85426   24.92309   24.98648   25.00000   25.00000   25.00000   25.00000   25.00000   25.00000   25.00000   25.00000   25.00000   25.00000   25.00000   25.00000   25.00000   25.00000   25.00000   25.01246   25.04981   25.11194   25.19866   25.30972   25.44479   25.60352   25.78545   25.99010   26.21691   26.46536   26.73483   27.02468   27.33423   27.66289   28.00995   28.37474   28.75654   29.15476
  29.00000   23.62906   23.63220   23.64210   23.65884   23.68211   23.71127   23.74736   23.78878   23.83497   23.88715   23.94526   24.01041   24.07780   24.14723   24.21980   24.29843   24.37754   24.45728   24.53795   24.61903   24.69766   24.77462   24.84906   24.92035   24.98600   25.00000   25.00000   25.00000   25.00000   25.00000   25.00000   25.00000   25.00000   25.00000   25.00000   25.00000   25.00000   25.00000   25.00000   25.00000   25.01246   25.04981   25.11194   25.19866   25.30972   25.44479   25.60352   25.78545   25.99010   26.21691   26.46536   26.73483   27.02468   27.33423   27.66289   28.00995   28.37474   28.75654   29.15476
  30.00000   23.58178   23.58503   23.59528   23.61260   23.63667   23.66683   23.70417   23.74701   23.79479   23.84878   23.90889   23.97629   24.04600   24.11783   24.19290   24.27424   24.35607   24.43857   24.52202   24.60589   24.68723   24.76685   24.84385   24.91760   24.98552   25.00000   25.00000   25.00000   25.00000   25.00000   25.00000   25.00000   25.00000   25.00000   25.00000   25.00000   25.00000   25.00000   25.00000   25.00000   25.01246   25.04981   25.11194   25.19866   25.30972   25.44479   25.60352   25.78545   25.99010   26.21691   26.46536   26.73483   27.02468   27.33423   27.66289   28.00995   28.37474   28.75654   29.15476
  31.00000   23.53451   23.53787   23.54845   23.56635   23.59122   23.62240   23.66097   23.70524   23.75462   23.81040   23.87252   23.94217   24.01420   24.08842   24.16600   24.25005   24.33461   24.41985   24.50608   24.59276   24.67681   24.75908   24.83865   24.91485   24.98504   25.00000   25.00000   25.00000   25.00000   25.00000   25.00000   25.00000   25.00000   25.00000   25.00000   25.00000   25.00000   25.00000   25.00000   25.00000   25.01246   25.04981   25.11194   25.19866   25.30972   25.44479   25.60352   25.78545   25.99010   26.21691   26.46536   26.73483   27.02468   27.33423   27.66289   28.00995   28.37474   28.75654   29.15476
  33.00000   23.43996   23.44354   23.45480   23.47385   23.50034   23.53352   23.57458   23.62171   23.67427   23.73366   23.79978   23.87392   23.95060   24.02961   24.11219   24.20166   24.29168   24.38243   24.47422   24.56648   24.65595   24.74353   24.82824   24.90936   24.98407   25.00000   25.00000   25.00000   25.00000   25.00000   25.00000   25.00000   25.00000   25.00000   25.00000   25.00000   25.00000   25.00000   25.00000   25.00000   25.01246   25.04981   25.11194   25.19866   25.30972   25.44479   25.60352   25.78545   25.99010   26.21691   26.46536   26.73483   27.02468   27.33423   27.66289   28.00995   28.37474   28.75654   29.15476
  34.00000   23.39269   23.39637   23.40798   23.42761   23.45489   23.48908   23.53139   23.57994   23.63410   23.69528   23.76341   23.83980   23.91880   24.00020   24.08529   24.17747   24.27022   24.36371   24.45829   24.55335   24.64553   24.73576   24.82303   24.90661   24.98359   25.00000   25.00000   25.00000   25.00000   25.00000   25.00000   25.00000   25.00000   25.00000   25.00000   25.00000   25.00000   25.00000   25.00000   25.00000   25.01246   25.04981   25.11194   25.19866   25.30972   25.44479   25.60352   25.78545   25.99010   26.21691   26.46536   26.73483   27.02468   27.33423   27.66289   28.00995   28.37474   28.75654   29.15476
  35.00000   23.34541   23.34921   23.36116   23.38136   23.40945   23.44464   23.48820   23.53818   23.59393   23.65691   23.72704   23.80567   23.88700   23.97080   24.05838   24.15328   24.24875   24.34500   24.44235   24.54021   24.63510   24.72799   24.81783   24.90387   24.98310   25.00000   25.00000   25.00000   25.00000   25.00000   25.00000   25.00000   25.00000   25.00000   25.00000   25.00000   25.00000   25.00000   25.00000   25.00000   25.01246   25.04981   25.11194   25.19866   25.30972   25.44479   25.60352   25.78545   25.99010   26.21691   26.46536   26.73483   27.02468   27.33423   27.66289   28.00995   28.37474   28.75654   29.15476
  36.00000   23.29814   23.30204   23.31433   23.33511   23.36400   23.40020   23.44500   23.49641   23.55375   23.61853   23.69067   23.77155   23.85520   23.94139   24.03148   24.12909   24.22729   24.32628   24.42642   24.52707   24.62468   24.72022   24.81262   24.90112   24.98262   25.00000   25.00000   25.00000   25.00000   25.00000   25.00000   25.00000   25.00000   25.00000   25.00000   25.00000   25.00000   25.00000   25.00000   25.00000   25.01246   25.04981   25.11194   25.19866   25.30972   25.44479   25.60352   25.78545   25.99010   26.21691   26.46536   26.73483   27.02468   27.33423   27.66289   28.00995   28.37474   28.75654   29.15476
  37.00000   23.25086   23.25487   23.26751   23.28887   23.31856   23.35576   23.40181   23.45464   23.51358   23.58016   23.65430   23.73742   23.82340   23.91198   24.00458   24.10490   24.20582   24.30757   24.41049   24.51394   24.61425   24.71245   24.80742   24.89837   24.98214   25.00000   25.00000   25.00000   25.00000   25.00000   25.00000   25.00000   25.00000   25.00000   25.00000   25.00000   25.00000   25.00000   25.00000   25.00000   25.01246   25.04981   25.11194   25.19866   25.30972   25.44479   25.60352   25.78545   25.99010   26.21691   26.46536   26.73483   27.02468   27.33423   27.66289   28.00995   28.37474   28.75654   29.15476
  38.00000   23.20359   23.20771   23.22068   23.24262   23.27311   23.31132   23.35861   23.41288   23.47340   23.54179   23.61793   23.70330   23.79160   23.88258   23.97767   24.08070   24.18436   24.28885   24.39455   24.50080   24.60383   24.70468   24.80221   24.89563   24.98166   25.00000   25.00000   25.00000   25.00000   25.00000   25.00000   25.00000   25.00000   25.00000   25.00000   25.00000   25.00000   25.00000   25.00000   25.00000   25.01246   25.04981   25.11194   25.19866   25.30972   25.44479   25.60352   25.78545   25.99010   26.21691   26.46536   26.73483   27.02468   27.33423   27.66289   28.00995   28.37474   28.75654   29.15476
  39.00000   23.15632   23.16054   23.17386   23.19637   23.22767   23.26688   23.31542   23.37111   23.43323   23.50341   23.58156   23.66918   23.75980   23.85317   23.95077   24.05651   24.16290   24.27014   24.37862   24.48766   24.59340   24.69690   24.79701   24.89288   24.98117   25.00000   25.00000   25.00000   25.00000   25.00000   25.00000   25.00000   25.00000   25.00000   25.00000   25.00000   25.00000   25.00000   25.00000   25.00000   25.01246   25.04981   25.11194   25.19866   25.30972   25.44479   25.60352   25.78545   25.99010   26.21691   26.46536   26.73483   27.02468   27.33423   27.66289   28.00995   28.37474   28.75654   29.15476
  40.00000   23.10904   23.11338   23.12704   23.15013   23.18223   23.22245   23.27222   23.32935   23.39306   23.46504   23.54519   23.63505   23.72800   23.82377   23.92387   24.03232   24.14143   24.25143   24.36269   24.47452   24.58298   24.68913   24.79180   24.89013   24.98069   25.00000   25.00000   25.00000   25.00000   25.00000   25.00000   25.00000   25.00000   25.00000   25.00000   25.00000   25.00000   25.00000   25.00000   25.00000   25.01246   25.04981   25.11194   25.19866   25.30972   25.44479   25.60352   25.78545   25.99010   26.21691   26.46536   26.73483   27.02468   27.33423   27.66289   28.00995   28.37474   28.75654   29.15476
  41.00000   23.06177   23.06621   23.08021   23.10388   23.13678   23.17801   23.22903   23.28758   23.35288   23.42666   23.50882   23.60093   23.69620   23.79436   23.89696   24.00813   24.11997   24.23271   24.34676   24.46139   24.57255   24.68136   24.78660   24.88739   24.98021   25.00000   25.00000   25.00000   25.00000   25.00000   25.00000   25.00000   25.00000   25.00000   25.00000   25.00000   25.00000   25.00000   25.00000   25.00000   25.01246   25.04981   25.11194   25.19866   25.30972   25.44479   25.60352   25.78545   25.99010   26.21691   26.46536   26.73483   27.02468   27.33423   27.66289   28.00995   28.37474   28.75654   29.15476
  42.00000   23.01449   23.01905   23.03339   23.05763   23.09134   23.13357   23.18583   23.24581   23.31271   23.38829   23.47245   23.56681   23.66440   23.76496   23.87006   23.98394   24.09850   24.21400   24.33082   24.44825   24.56212   24.67359   24.78139   24.88464   24.97973   25.00000   25.00000   25.00000   25.00000   25.00000   25.00000   25.00000   25.00000   25.00000   25.00000   25.00000   25.00000   25.00000   25.00000   25.00000   25.01246   25.04981   25.11194   25.19866   25.30972   25.44479   25.60352   25.78545   25.99010   26.21691   26.46536   26.73483   27.02468   27.33423   27.66289   28.00995   28.37474   28.75654   29.15476
  43.00000   22.96722   22.97188   22.98656   23.01139   23.04589   23.08913   23.14264   23.20405   23.27254   23.34992   23.43608   23.53268   23.63260   23.73555   23.84316   23.95974   24.07704   24.19528   24.31489   24.43511   24.55170   24.66582   24.77619   24.88189   24.97924   25.00000   25.00000   25.00000   25.00000   25.00000   25.00000   25.00000   25.00000   25.00000   25.00000   25.00000   25.00000   25.00000   25.00000   25.00000   25.01246   25.04981   25.11194   25.19866   25.30972   25.44479   25.60352   25.78545   25.99010   26.21691   26.46536   26.73483   27.02468   27.33423   27.66289   28.00995   28.37474   28.75654   29.15476
