Temperature as a function of time and angular position 

Angular position
   theta1_[deg]   ..........   theta59_[deg]
              0.00000    2.30770    4.61537    6.92308    9.23076   11.53846   13.84615   16.15385   18.46154   20.76922   23.07693   25.38459   27.69235   29.99999   32.30761   34.61535   36.92316   39.23071   41.53852   43.84614   46.15391   48.46158   50.76920   53.07696   55.38465   57.69245   59.99996   62.30765   64.61545   66.92302   69.23081   71.53845   73.84626   76.15380   78.46165   80.76921   83.07696   85.38453   87.69242   90.00000   91.80880   93.61377   95.41182   97.19925   98.97270  100.72877  102.46490  104.17809  105.86579  107.52549  109.15559  110.75410  112.31952  113.85041  115.34617  116.80583  118.22886  119.61477  120.96376

Time and temperatures for the above positions
  time_[s]   T(theta1)_[K]      ..........  T(theta59)_[K]
   0.00000  307.25000  307.25000  307.25000  307.25000  307.25000  307.25000  307.25000  307.25000  307.25000  307.25000  307.25000  307.25000  307.25000  307.25000  307.25000  307.25000  307.25000  307.25000  307.25000  307.25000  307.25000  307.25000  307.25000  307.25000  307.25000  307.25000  307.25000  307.25000  307.25000  307.25000  307.25000  307.25000  307.25000  307.25000  307.25000  307.25000  307.25000  307.25000  307.25000  307.25000  307.25000  307.25000  307.25000  307.25000  307.25000  307.25000  307.25000  307.25000  307.25000  307.25000  307.25000  307.25000  307.25000  307.25000  307.25000  307.25000  307.25000  307.25000  307.25000
   0.10000  884.08429  873.63979  871.97168  861.68529  848.66885  828.90625  802.26462  797.91216  798.86914  795.36727  788.64164  779.66264  768.68760  756.62031  743.40680  730.82614  716.89992  701.70173  688.25367  675.24969  662.05971  650.35440  639.00005  628.65599  616.42452  605.38759  592.83546  580.22619  569.12846  557.22315  546.28792  535.45619  527.71430  519.21612  513.41364  508.60071  505.44937  502.82683  500.61096  499.59035  500.47487  502.61523  504.42008  506.51463  509.91933  513.91555  518.25236  522.29498  526.82938  531.43681  534.78618  539.56623  545.35194  550.55856  554.13348  556.67621  552.22510  532.34283  508.29656
   0.20000 1105.89117 1091.61068 1088.50106 1074.37701 1056.73859 1029.29403  990.98962  984.94340  987.26229  982.16686  972.55811  959.69961  944.22949  927.17037  908.52131  890.59927  870.96157  849.76941  830.88555  812.59090  793.94685  776.93749  760.44261  745.28875  727.79509  711.48176  693.58967  675.48695  659.34369  642.59975  627.06170  611.65853  600.38879  588.29251  579.16532  571.38201  565.58553  560.85868  556.98027  554.65310  554.76500  556.52952  558.04283  559.78098  562.95069  566.89279  571.23316  575.20723  579.69309  584.18726  587.08025  591.31186  596.74407  601.63215  604.59438  606.31862  600.21638  576.91693  549.21646
   0.30000 1268.96947 1252.02526 1248.00868 1231.20718 1210.30543 1177.32900 1130.53716 1123.36431 1126.81637 1120.66320 1109.03624 1093.41436 1074.71691 1054.05385 1031.46291 1009.66120  985.86007  960.28559  937.42809  915.26081  892.61474  871.70843  851.43218  832.73829  811.35903  791.14288  769.29382  747.11238  727.22104  706.87899  687.91502  669.10446  655.20956  640.43119  628.82451  618.82591  611.05695  604.76397  599.65157  596.35818  595.90696  597.40811  598.72126  600.20935  603.22049  607.14081  611.50275  615.44311  619.90999  624.33546  626.89795  630.72820  635.90683  640.56735  643.07706  644.19098  636.84211  610.94648  580.46666
   0.40000 1400.73774 1381.76703 1377.14069 1358.29199 1334.86244 1297.51029 1243.93158 1235.94484 1240.41978 1233.50486 1220.33023 1202.54848 1181.30719 1157.78685 1132.05613 1107.15924 1080.02422 1050.92988 1024.88138  999.60010  973.72791  949.67611  926.34395  904.78765  880.25610  856.86820  831.79749  806.28867  783.33813  760.05625  738.29054  716.68943  700.64827  683.67324  670.03487  658.22109  648.83607  641.26257  635.14405  631.06586  630.16424  631.46386  632.62756  633.92404  636.81932  640.73748  645.13308  649.06055  653.52647  657.90899  660.20912  663.71710  668.69655  673.17915  675.32194  675.93605  667.55310  639.49030  606.68785
   0.50000 1512.01406 1491.43811 1486.40082 1465.92168 1440.44993 1399.48257 1340.23308 1331.64129 1337.07165 1329.59303 1315.18273 1295.63985 1272.30552 1246.41972 1218.07700 1190.60098 1160.67722 1128.62934 1099.90387 1072.00671 1043.41745 1016.71303  990.80062  966.82618  939.62249  913.54122  885.72969  857.38437  831.82464  806.03276  781.87274  757.88342  740.00869  721.15371  705.77575  692.40776  681.63926  672.97181  665.99628  661.25228  659.97477  661.11444  662.16305  663.30725  666.11582  670.04603  674.48461  678.41414  682.89220  687.24985  689.33290  692.57091  697.38755  701.72549  703.55768  703.74424  694.46492  664.51159  629.68073
   0.60000 1608.44794 1586.57282 1581.26969 1559.46320 1532.30225 1488.27182 1424.16110 1415.11710 1421.45584 1413.55872 1398.14049 1377.12699 1352.02778 1324.13434 1293.56338 1263.88345 1231.56714 1196.97710 1165.94814 1135.79698 1104.86035 1075.86116 1047.71379 1021.64371  992.11617  963.68837  933.48443  902.65812  874.81508  846.82439  820.56493  794.47848  774.99659  754.49080  737.58457  722.85124  710.86755  701.24133  693.51698  688.19366  686.59481  687.60541  688.56462  689.58578  692.32954  696.28299  700.77226  704.71553  709.21608  713.56276  715.46209  718.46845  723.14918  727.36712  728.92982  728.74126  718.66472  687.01905  650.37039
   0.70000 1693.45619 1670.51693 1665.05924 1642.15845 1613.57997 1566.91156 1498.56304 1489.18475 1496.39602 1488.19267 1471.94242 1449.68260 1423.07187 1393.44700 1360.94402 1329.34985 1294.94678 1258.13206 1225.08794 1192.96216 1159.96348 1128.94573 1098.82992 1070.91316 1039.33045 1008.82362  976.49593  943.46263  913.58746  883.63775  855.50604  827.54663  806.63209  784.65202  766.38033  750.42715  737.35798  726.87725  718.48765  712.65195  710.77420  711.68008  712.57025  713.49141  716.18780  720.17376  724.72027  728.68691  733.21855  737.56555  739.30729  742.11189  746.67786  750.79523  752.12039  751.59727  740.79957  707.61299  669.30731
   0.80000 1769.30478 1745.48844 1739.96421 1716.15497 1686.37595 1637.40978 1565.32293 1555.70448 1563.75917 1555.33941 1538.39810 1515.07188 1487.15293 1456.01839 1421.82125 1388.54552 1352.30136 1313.51704 1278.68949 1244.81366 1209.98231 1177.16805 1145.29809 1115.73485 1082.31298 1049.94215 1015.70664  980.68652  948.98105  917.26501  887.44360  857.79132  835.58438  812.27190  792.76556  775.70947  761.65907  750.40774  741.42019  735.12610  733.00388  733.82497  734.66286  735.50292  738.16639  742.19273  746.80224  750.80043  755.37053  759.72735  761.33280  763.95994  768.42851  772.46125  773.57476  772.74980  761.29190  726.68524  686.85077
   0.90000 1837.59516 1813.05437 1807.53467 1782.96895 1752.16723 1701.18314 1625.76956 1615.98783 1624.86109 1616.29844 1598.78201 1574.53760 1545.47811 1513.01689 1477.32203 1442.55696 1404.67476 1364.13173 1327.71239 1292.27230 1255.79807 1221.37108 1187.92434 1156.88037 1121.79818 1087.74139 1051.77683 1014.95217  981.58351  948.26068  916.90071  885.70464  862.32150  837.79408  817.16142  799.09929  784.15406  772.20167  762.67206  755.96446  753.62648  754.37960  755.17938  755.95430  758.59709  762.67070  767.34831  771.38516  776.00016  780.37500  781.86208  784.33212  788.71789  792.67949  793.60298  792.50341  780.43571  744.50850  703.25075
   1.00000 1899.51309 1874.37467 1868.91765 1843.72203 1812.04619 1759.27901 1680.88500 1671.00382 1680.67365 1672.02933 1654.03488 1628.99681 1598.93785 1565.30411 1528.27712 1492.18486 1452.83599 1410.71235 1372.86312 1336.01577 1298.05910 1262.17480 1227.30133 1194.91690 1158.32572 1122.73368 1085.19141 1046.71652 1011.82617  977.03163  944.26109  911.64748  887.18658  861.54372  839.87655  820.89046  805.12360  792.52916  782.50492  775.42195  772.89274  773.59232  774.36623  775.08973  777.72247  781.84942  786.59974  790.68154  795.34716  799.74723  801.13130  803.46168  807.77727  811.67935  812.43131  811.08033  798.44549  761.28166  718.68957
   1.10000 1955.96843 1930.33912 1924.99282 1899.27414 1866.85009 1812.49995 1731.42157 1721.49456 1731.94093 1723.26647 1704.87653 1679.15098 1648.21308 1613.53870 1575.32142 1538.04094 1497.37241 1453.82105 1414.68093 1376.56120 1337.26002 1300.05205 1263.88091 1230.27669 1192.30682 1155.30927 1116.31962 1076.32741 1040.03726 1003.88741  969.81661  935.89426  910.44046  883.76797  861.14542  841.30616  824.78084  811.59528  801.11738  793.69203  790.99286  791.65151  792.41027  793.09437  795.72638  799.91211  804.73931  808.87169  813.59307  818.02479  819.31930  821.52521  825.78166  829.63443  830.23096  828.64867  815.48347  777.15515  733.30511
   1.20000 2007.67912 1981.64970 1976.45401 1950.30344 1917.23904 1861.47855 1777.97212 1768.04471 1779.24898 1770.58816 1751.87361 1725.55217 1693.83956 1658.23876 1618.95420 1580.60609 1538.74563 1493.89949 1453.58941 1414.31468 1373.78908 1335.37387 1298.01757 1263.29880 1224.06388 1185.77407 1145.45082 1104.05735 1066.47389 1029.07042  993.79572  958.65972  932.28722  904.66010  881.15140  860.52088  843.29236  829.56026  818.66460  810.92579  808.07535  808.70423  809.45734  810.11265  812.75226  817.00169  821.90957  826.09762  830.87942  835.34857  836.56541  838.66029  842.86740  846.67994  847.13523  845.33933  831.67596  792.24608  747.20468
   1.30000 2055.22462 2028.87291 2023.86106 1997.35698 1963.74546 1906.72495 1821.01462 1811.12555 1823.07012 1814.46037 1795.48258 1768.64500 1736.24863 1699.82131 1659.57723 1620.26724 1577.32694 1531.30282 1489.92906 1449.60256 1407.95824 1368.43832 1329.99598 1294.25541 1253.85567 1214.37352 1172.81711 1130.12488 1091.34214 1052.77490 1016.38149  980.11589  952.89028  924.37488  900.04123  878.67425  860.79142  846.55225  835.27063  827.24401  824.25891  824.86798  825.62394  826.25998  828.91463  833.23223  838.22431  842.47264  847.31914  851.83097  852.98077  854.97661  859.14320  862.92368  863.25039  861.25662  847.12360  806.64773  760.47376
   1.40000 2099.08144 2072.47451 2067.67420 2040.88446 2006.80694 1948.65834 1860.94181 1851.12423 1863.79224 1855.26570 1836.07817 1808.79440 1775.79429 1738.62852 1697.52008 1657.34165 1613.42075 1566.32215 1523.97890 1482.69220 1440.02302 1399.48946 1360.04917 1323.36927 1281.89393 1241.30840 1198.60831 1154.70867 1114.81051 1075.15962 1037.72348 1000.40327  972.38310  943.03864  917.93470  895.88017  877.38673  862.67576  851.03662  842.74514  839.64028  840.23850  841.00498  841.63032  844.30676  848.69661  853.77611  858.08897  863.00408  867.56339  868.65577  870.56338  874.69742  878.45324  878.66280  876.48532  861.90815  820.43589  773.18177
   1.50000 2139.64747 2112.84344 2108.27773 2081.26132 2046.78877 1987.62864 1898.08143 1888.36380 1901.73903 1893.32335 1873.97298 1846.30471 1812.77171 1774.94564 1733.05744 1692.09375 1647.28069 1599.19996 1555.97133 1513.80624 1470.19610 1428.73040 1388.37105 1350.82570 1308.35474 1266.74565 1222.98219 1177.95718 1137.01892 1096.35641 1057.94584 1019.63849  990.87642  960.75618  934.93116  912.23314  893.16842  878.01742  866.04639  857.51075  854.29959  854.89506  855.67903  856.30144  859.00582  863.47168  868.64159  873.02289  878.01022  882.62142  883.66513  885.49434  889.60311  893.34102  893.44379  891.09542  876.09714  833.67313  785.38605
   1.60000 2177.25939 2150.30878 2145.99677 2118.80519 2084.00000 2023.93186 1932.71075 1923.11753 1937.18420 1928.90325 1909.43130 1881.43325 1847.43037 1809.01372 1766.42143 1724.74692 1679.12098 1630.14105 1586.10256 1543.13259 1498.65699 1456.33254 1415.12518 1376.78096 1333.38655 1290.82598 1246.07172 1199.99553 1158.08530 1116.47632 1077.15316 1037.91973 1008.46345  977.61569  951.11418  927.81259  908.21226  892.65006  880.37038  871.60937  868.30413  868.90426  869.71207  870.33865  873.07659  877.62192  882.88501  887.33835  892.40125  897.06843  898.07147  899.83128  903.92145  907.64767  907.65314  905.14559  889.74713  846.41186  797.13458
   1.70000 2212.20529 2185.15211 2181.10954 2153.78788 2118.70508 2057.82126 1965.06698 1955.61919 1970.36194 1962.23628 1942.67918 1914.40004 1879.98364 1841.03891 1797.81048 1755.49210 1709.12471 1659.32041 1614.54022 1570.83178 1525.55901 1482.44221 1440.45121 1401.36846 1357.11608 1313.66945 1267.99033 1220.93039 1178.11016 1135.61399 1095.43452 1055.33064 1025.22357  993.69230  966.55492  942.68615  922.58274  906.63563  894.06852  885.09928  881.71113  882.32267  883.16015  883.79741  886.57409  891.20209  896.56094  901.08966  906.23127  910.95821  911.92794  913.62661  917.70435  921.42463  921.34150  918.68552  902.90605  858.69648  808.46803
   1.80000 2244.73404 2217.61671 2213.85643 2186.44424 2151.13249 2089.51571 1995.35510 1986.07080 2001.47457 1993.52194 1973.91193 1945.39520 1910.61581 1871.19923 1827.39597 1784.49417 1737.44997 1686.88909 1641.42901 1597.04235 1551.03443 1507.18567 1464.46959 1424.70324 1379.65257 1335.37957 1288.83577 1240.85371 1197.18011 1153.85096 1112.86666 1071.94324 1041.22514 1009.05062  981.31459  956.91200  936.33533  920.02740  907.19231  898.03058  894.56976  895.19894  896.07143  896.72537  899.54555  904.25919  909.71621  914.32343  919.54664  924.33686  925.28011  926.92528  930.99630  934.71596  934.55231  931.75781  915.61496  870.56503  819.42124
   1.90000 2275.06246 2247.91457 2244.44691 2216.97894 2181.48140 2119.20596 2023.75377 2014.64843 2030.69846 2022.93413 2003.29979 1974.58440 1939.48749 1899.64984 1855.32724 1811.89681 1764.23450 1712.97872 1666.89496 1621.88496 1575.19847 1530.67284 1487.28516 1446.88541 1401.09107 1356.04638 1308.69309 1259.84543 1215.37044 1171.25810 1129.51628 1087.82011 1056.52752 1023.74679  995.44637  970.54065  949.51815  932.87159  919.78644  910.44670  906.92267  907.57520  908.48766  909.16382  912.03191  916.83396  922.39138  927.08000  932.38753  937.24433  938.16741  939.76618  943.83580  947.55981  947.32312  944.39930  927.90936  882.05040  830.02430
   2.00000 2303.38086 2276.23176 2273.06489 2245.57169 2209.92668 2147.05953 2050.41991 2041.50673 2058.18853 2050.62557 2030.99226 2002.11319 1966.73978 1926.52701 1881.73544 1837.82618 1789.59922 1737.70483 1691.04871 1645.46552 1598.15221 1553.00019 1508.98995 1468.00283 1421.51499 1375.74887 1327.63685 1277.97566 1232.74716 1187.89752 1145.44181 1103.01608 1071.18271 1037.82999 1008.99679  983.61631  962.17334  945.20865  931.89000  922.38565  918.80712  919.48831  920.44531  921.14882  924.06892  928.96195  934.62187  939.39460  944.78900  949.71546  950.62427  952.18324  956.25643  959.98943  959.68668  956.64211  939.82021  893.18124  840.30345
   3.00000 2505.50996 2479.32853 2479.30054 2452.60080 2416.85271 2350.62032 2246.19626 2239.58826 2261.83881 2256.67754 2237.95551 2208.74481 2172.17217 2129.98915 2082.48332 2035.74804 1984.00048 1927.97446 1877.65251 1828.35525 1776.86901 1727.50317 1679.26536 1634.28475 1582.92406 1532.01734 1478.42068 1422.78833 1372.01875 1321.71128 1273.94106 1226.03041 1190.20147 1152.56551 1119.73531 1090.80138 1066.22297 1046.94135 1031.98551 1021.39948 1017.64272 1018.83171 1020.42574 1021.61915 1025.23263 1031.14442 1037.91909 1043.64968 1050.02332 1055.78056 1056.80190 1058.24925 1062.57490 1066.60135 1065.94161 1062.06117 1042.57174  989.37695  929.29364
   4.00000 2616.97752 2592.42152 2595.24784 2570.10245 2535.40079 2468.32445 2360.43866 2356.22405 2382.82755 2380.17559 2363.08257 2334.74778 2298.50906 2256.16419 2208.00555 2160.51358 2107.53333 2049.84159 1998.10691 1947.32262 1894.00534 1842.73381 1792.53339 1745.69933 1691.84659 1638.21263 1581.59797 1522.55436 1468.60975 1415.12790 1364.22794 1313.01286 1274.88415 1234.70114 1199.48668 1168.44947 1142.03628 1121.48749 1105.74028 1094.75516 1091.25745 1093.21155 1095.66550 1097.60586 1102.11792 1109.17503 1117.16895 1123.99854 1131.48696 1138.24261 1139.69934 1141.39921 1146.25528 1150.83800 1150.21221 1145.97413 1124.65083 1066.48246 1000.85997
   5.00000 2681.27690 2658.29305 2663.43114 2639.85626 2606.43647 2539.50858 2430.16223 2428.05250 2458.00251 2457.58673 2442.19798 2415.10196 2379.75977 2337.99015 2290.08046 2242.75827 2189.61961 2131.46242 2079.41145 2028.24135 1974.28274 1922.29506 1871.31488 1823.75304 1768.69863 1713.66632 1655.41357 1594.41433 1538.64758 1483.30890 1430.55005 1377.31290 1337.87413 1296.17028 1259.52988 1227.25363 1199.78277 1178.59057 1162.55100 1151.56596 1148.57273 1151.42467 1154.85223 1157.67858 1163.19764 1171.46014 1180.72175 1188.72534 1197.40253 1205.25411 1207.34796 1209.53162 1215.09525 1220.40365 1220.06727 1215.78619 1193.17830 1131.07763 1061.01293
   6.00000 2719.35382 2697.68002 2704.59196 2682.36483 2650.13223 2583.70138 2473.84448 2473.46027 2505.95011 2507.39579 2493.54661 2467.70253 2433.39806 2392.45997 2345.16680 2298.40778 2245.60768 2187.57354 2135.74110 2084.73469 2030.75286 1978.67904 1927.55660 1879.87845 1824.35367 1768.69183 1709.61588 1647.53873 1590.77049 1534.38287 1480.55192 1426.09746 1385.96220 1343.38410 1305.92511 1272.95893 1244.92516 1223.48273 1207.46115 1196.72035 1194.37065 1198.18244 1202.63446 1206.41796 1212.99562 1222.48273 1233.02490 1242.23643 1252.13756 1261.13922 1264.00140 1266.82354 1273.21234 1279.36033 1279.49138 1275.38987 1251.89165 1186.61086 1112.89798
   7.00000 2742.29458 2721.64054 2729.87193 2708.72024 2677.47764 2611.61396 2501.68699 2502.66412 2537.06259 2540.00090 2527.45185 2502.73259 2469.42181 2429.34799 2382.77997 2336.71456 2284.45666 2226.81580 2175.44332 2124.85821 2071.16354 2019.32901 1968.40185 1920.93407 1865.35509 1809.51356 1750.10418 1687.49102 1630.23109 1573.30292 1518.90061 1463.74949 1423.30755 1380.27448 1342.39325 1309.09612 1280.82326 1259.38385 1243.57587 1233.22879 1231.59645 1236.38643 1241.87448 1246.64354 1254.29514 1264.99928 1276.81110 1287.23705 1298.37108 1308.54769 1312.26348 1315.82897 1323.12118 1330.18574 1330.91186 1327.15338 1303.06174 1235.17462 1158.42121
   8.00000 2756.28596 2736.39574 2745.58906 2725.26138 2694.80096 2629.46029 2519.65132 2521.67700 2557.49875 2561.60610 2550.11390 2526.34739 2493.91217 2454.63547 2408.77712 2363.40641 2311.74336 2254.59666 2203.76885 2153.70419 2100.43584 2048.99420 1998.42844 1951.33353 1895.93054 1840.16828 1780.71810 1717.90450 1660.47057 1603.32372 1548.67128 1493.16440 1452.66431 1409.45066 1371.40836 1338.01703 1309.71858 1288.44508 1272.97208 1263.10691 1262.22373 1267.98219 1274.49243 1280.24735 1288.96415 1300.85978 1313.91409 1325.54199 1337.89950 1349.25536 1353.87804 1358.25714 1366.50320 1374.53504 1375.94863 1372.65548 1348.20073 1278.16068 1198.84897
   9.00000 2764.89732 2745.56537 2755.45020 2735.73792 2705.87569 2640.97499 2531.34813 2534.16833 2571.04490 2576.05325 2565.39949 2542.41228 2510.71376 2472.12888 2426.90970 2382.17487 2331.08392 2274.44312 2224.16210 2174.63163 2121.83327 2070.84045 2020.70318 1974.04793 1918.93902 1863.39799 1804.07678 1741.26756 1683.85486 1626.69105 1571.99321 1516.35349 1475.95145 1432.73586 1394.70378 1361.37337 1333.18885 1312.18361 1297.11735 1287.78130 1287.65133 1294.35043 1301.85242 1308.57470 1318.33178 1331.38122 1345.63972 1358.44387 1372.00239 1384.52696 1390.08677 1395.32458 1404.55452 1413.58495 1415.75250 1413.01685 1388.38113 1316.55521 1235.07761
  10.00000 2770.23499 2751.30424 2761.68106 2742.42038 2713.00588 2648.45705 2539.01801 2542.43316 2580.08756 2585.78228 2575.78261 2553.41837 2522.32202 2484.31608 2439.64630 2395.46529 2344.88924 2288.72152 2238.94818 2189.92153 2137.58483 2087.04228 2037.34406 1991.13992 1936.37550 1881.12542 1822.02547 1759.34131 1702.06561 1645.00787 1590.39219 1534.76345 1494.55419 1451.45059 1413.53893 1380.36879 1352.38703 1331.71102 1317.08944 1308.30188 1308.91079 1316.51111 1324.96372 1332.62235 1343.38392 1357.54149 1372.95842 1386.90384 1401.63163 1415.30363 1421.81371 1427.93659 1438.16513 1448.21076 1451.17912 1449.07026 1424.39935 1351.08997 1267.77174
  11.00000 2773.56218 2754.91624 2765.64033 2746.70687 2717.62240 2653.34623 2544.07573 2547.93241 2586.15801 2592.37100 2582.87540 2561.00121 2530.38745 2492.85448 2448.64314 2404.92964 2354.79905 2299.05192 2249.72922 2201.15552 2149.24558 2099.12574 2049.84607 2004.07364 1949.66378 1894.73004 1835.89480 1773.40194 1716.32726 1659.44658 1604.98909 1549.46149 1509.49846 1466.57660 1428.85345 1395.90445 1368.17904 1347.86468 1333.70253 1325.46390 1326.78530 1335.24033 1344.59584 1353.15161 1364.87484 1380.08976 1396.61454 1411.65991 1427.51872 1442.30906 1449.76978 1456.78988 1468.02003 1479.08612 1482.88694 1481.45639 1456.86785 1382.32742 1297.44186
  12.00000 2775.05424 2757.32735 2767.55590 2749.25389 2720.43610 2656.88251 2548.05995 2550.51907 2589.80910 2596.80345 2587.83013 2566.67728 2536.73395 2499.74020 2456.26528 2412.89191 2363.34523 2307.92129 2258.92986 2210.61454 2158.69794 2108.91857 2060.10352 2014.63058 1960.61694 1906.06315 1847.65837 1785.38057 1728.56116 1671.88847 1617.57580 1562.22751 1522.31984 1479.72517 1442.42749 1410.00793 1382.77994 1363.00254 1349.41723 1341.66653 1343.46672 1352.49341 1362.41671 1371.62856 1384.04613 1399.98969 1417.32406 1433.22234 1449.97403 1465.60482 1473.82273 1481.61042 1493.51573 1505.13460 1509.36658 1508.02252 1482.69181 1405.87757 1318.57988
  13.00000 2774.35101 2759.39390 2767.32563 2750.51908 2721.90394 2660.35099 2552.79325 2549.42110 2591.28745 2600.04656 2591.97429 2572.34590 2543.80914 2507.82655 2465.96847 2422.87066 2374.37651 2319.20102 2270.38985 2222.00467 2169.11801 2119.56958 2071.41539 2026.03149 1972.58853 1918.63855 1861.13946 1799.12734 1742.65155 1686.23434 1632.00841 1576.99105 1536.64999 1494.68161 1458.33767 1427.22608 1401.14973 1382.44030 1369.85707 1362.58165 1364.43714 1373.51501 1383.37244 1392.81903 1405.44316 1421.49329 1439.09834 1455.42362 1472.65622 1488.60554 1497.23230 1505.57077 1517.46923 1528.60344 1532.33558 1529.62858 1501.36159 1419.15306 1326.68948
  14.00000 2772.34025 2761.14576 2766.09213 2750.99906 2722.39329 2663.44299 2557.64162 2546.25139 2591.23363 2602.28110 2595.39258 2577.60415 2550.85955 2516.24418 2476.36424 2433.60388 2386.26612 2331.32614 2282.57817 2233.95419 2179.62137 2130.16920 2082.67271 2037.26502 1984.45654 1931.22609 1874.91451 1813.20490 1757.04749 1700.89941 1646.75449 1592.17223 1551.14262 1509.86700 1474.64171 1445.22285 1420.68366 1403.36886 1392.06658 1385.29996 1386.97656 1395.77912 1405.20402 1414.59321 1427.06782 1442.79016 1460.26383 1476.66133 1494.00684 1509.86338 1518.62621 1527.29790 1538.75102 1548.79546 1551.49099 1546.67339 1514.45041 1425.48076 1326.58885
  15.00000 2769.81753 2762.70451 2764.74120 2751.15876 2722.35830 2666.13123 2562.35782 2542.48109 2590.38337 2603.91214 2598.39739 2582.43020 2557.60286 2524.58588 2486.68342 2444.40612 2398.10205 2343.44782 2294.69157 2245.78766 2189.92542 2140.43109 2093.46485 2048.00617 1995.83414 1943.36114 1888.36699 1826.99263 1771.06709 1715.18440 1661.15363 1607.06663 1565.27774 1524.61091 1490.41966 1462.77832 1439.94546 1424.19170 1414.33526 1408.15497 1409.58848 1417.97493 1426.83860 1436.01847 1448.13759 1463.29497 1480.39590 1496.62346 1513.81204 1529.31106 1538.04174 1546.87795 1557.67902 1566.40239 1567.86299 1560.74482 1524.42514 1428.57957 1323.06747
  16.00000 2767.30971 2764.13767 2763.75518 2751.26238 2722.12320 2668.45218 2566.85879 2539.12698 2589.26260 2605.25502 2601.21420 2586.85203 2563.89112 2532.57884 2496.43573 2454.81670 2409.30790 2355.03241 2306.22950 2257.07770 2199.86125 2150.18337 2103.54988 2058.06358 2006.49805 1954.76391 1901.10659 1840.09695 1784.29168 1728.66005 1674.79481 1621.22342 1578.71983 1538.49693 1505.11043 1479.12999 1458.01431 1443.86904 1435.53309 1430.03539 1431.27043 1439.22460 1447.55222 1456.46784 1468.13354 1482.62776 1499.23020 1515.13225 1531.97537 1546.96297 1555.56937 1564.44519 1574.54282 1581.95846 1582.20816 1572.95490 1532.94549 1430.87972 1319.23766
  17.00000 2765.13028 2765.47065 2763.32428 2751.43105 2721.90889 2670.48385 2571.17260 2536.83775 2588.22727 2606.54466 2603.99642 2590.92833 2569.67382 2540.05728 2505.34791 2464.55346 2419.56607 2365.78748 2316.92348 2267.58825 2209.34411 2159.34170 2112.81521 2067.34838 2016.34820 1965.29606 1912.91830 1852.30043 1796.50465 1741.10417 1687.45910 1634.38911 1591.27790 1551.30479 1518.42866 1493.86957 1474.37186 1461.79765 1454.98718 1450.26817 1451.41064 1458.99300 1466.89836 1475.55745 1486.74590 1500.57139 1516.62918 1532.11515 1548.49049 1562.89406 1571.33712 1580.16575 1589.60416 1595.86966 1595.06430 1584.04034 1541.04093 1433.81357 1316.91514
  18.00000 2763.42769 2766.69707 2763.43930 2751.69014 2721.85523 2672.32688 2575.39411 2535.97021 2587.49829 2607.94480 2606.83862 2594.73286 2574.96673 2546.93853 2513.31014 2473.47236 2428.75155 2375.59855 2326.67640 2277.22575 2218.34867 2167.88617 2121.24363 2075.84740 2025.37350 1974.92334 1923.71855 1863.51787 1807.63886 1752.44760 1699.07036 1646.45900 1602.87086 1562.96046 1530.29306 1506.85389 1488.80428 1477.70650 1472.37440 1468.51688 1469.69814 1477.00913 1484.64569 1493.09201 1503.82672 1517.03449 1532.55286 1547.57960 1563.41763 1577.22176 1585.49720 1594.22406 1603.09770 1608.43940 1606.79812 1594.44975 1549.26368 1438.06628 1316.94696
  19.00000 2762.22723 2767.78755 2763.96732 2752.00699 2722.03945 2674.08855 2579.64873 2536.65588 2587.19202 2609.55727 2609.78840 2598.34214 2579.82642 2553.20229 2520.33018 2481.53253 2436.87585 2384.47555 2335.51107 2285.99773 2226.88850 2175.84172 2128.88451 2083.60046 2033.62300 1983.68402 1933.51774 1873.75885 1817.73199 1762.72838 1709.65336 1657.43571 1613.49790 1573.49375 1540.76566 1518.12888 1501.31841 1491.56726 1487.62926 1484.69421 1486.04546 1493.19847 1500.72431 1509.01772 1519.34902 1532.01947 1547.03359 1561.59128 1576.86341 1590.09063 1598.21488 1606.81154 1615.23207 1619.89073 1617.64631 1604.41827 1557.81934 1443.78912 1319.49018
  20.00000 2761.46670 2768.69712 2764.71170 2752.31991 2722.49107 2675.86962 2584.06368 2538.85867 2587.34647 2611.43102 2612.85695 2601.82611 2584.32963 2558.87278 2526.49472 2488.76647 2444.04021 2392.50848 2343.52746 2293.97832 2234.99963 2183.26199 2135.82972 2090.68142 2041.18226 1991.66266 1942.38903 1883.09635 1826.88943 1772.05361 1719.29889 1667.39441 1623.21354 1583.00282 1550.00103 1527.86582 1512.07106 1503.51872 1500.86582 1498.88788 1500.52293 1507.62561 1515.17998 1523.38224 1533.37205 1545.59534 1560.15463 1574.25567 1588.96398 1601.65965 1609.65925 1618.11754 1626.19115 1630.38542 1627.75050 1614.03071 1566.67668 1450.77788 1324.24470
  21.00000 2761.02649 2769.37131 2765.45797 2752.55939 2723.20369 2677.75399 2588.74616 2542.42417 2587.94353 2613.57107 2616.02821 2605.24154 2588.55742 2564.00378 2531.93748 2495.25494 2450.39738 2399.83152 2350.86779 2301.28010 2242.72767 2190.21620 2142.19385 2097.18272 2048.15434 1998.96878 1950.44262 1891.64091 1835.25390 1780.56839 1728.13520 1676.45424 1632.10695 1591.62517 1558.20481 1536.30885 1521.31042 1513.80401 1512.31280 1511.29888 1513.30395 1520.44628 1528.13577 1536.30104 1546.01220 1557.87494 1572.03215 1585.70268 1599.87099 1612.09189 1619.99598 1628.32231 1636.13561 1640.04001 1637.18640 1623.27380 1575.65809 1458.61917 1330.64378
  22.00000 2760.75435 2769.75117 2766.00682 2752.66247 2724.14395 2679.80075 2593.76780 2547.12110 2588.92758 2615.94706 2619.26692 2608.62779 2592.58338 2568.66614 2536.81342 2501.10637 2456.12135 2406.59478 2357.68904 2308.03172 2250.11823 2196.77881 2148.09859 2103.20314 2054.64515 2005.72011 1957.80527 1899.51999 1842.98148 1788.43130 1736.30537 1684.75529 1640.28524 1599.51445 1565.60077 1543.73294 1529.32878 1522.71971 1522.26066 1522.19109 1524.62029 1531.86820 1539.76057 1547.92988 1557.41916 1568.99625 1582.80048 1596.07404 1609.74043 1621.54633 1629.38163 1637.59177 1645.20457 1648.93920 1645.98772 1632.07856 1584.51233 1466.80704 1338.00563
  23.00000 2760.48540 2769.77723 2766.19589 2752.58099 2725.25829 2682.03875 2599.15474 2552.67557 2590.22072 2618.50157 2622.52550 2612.00478 2596.46566 2572.93777 2541.27867 2506.44026 2461.38423 2412.94313 2364.14204 2314.36090 2257.21035 2203.02176 2153.66068 2108.83843 2060.75266 2012.02980 1964.60450 1906.86198 1850.22334 1795.79572 1743.94998 1692.44081 1647.86038 1606.82276 1572.40565 1550.41138 1536.42553 1530.57585 1531.01992 1531.85140 1534.72654 1542.11995 1550.24387 1558.44269 1567.75691 1579.10746 1592.60035 1605.51332 1618.72387 1630.17175 1637.95957 1646.07397 1653.51743 1657.14668 1654.16519 1640.35355 1592.97100 1474.83260 1345.64953
  24.00000 2760.05773 2769.39253 2765.91164 2752.28483 2726.47755 2684.46334 2604.88292 2558.79866 2591.73486 2621.15797 2625.74981 2615.37287 2600.24228 2576.89571 2545.47558 2511.37433 2466.33955 2419.00122 2370.35657 2320.38215 2264.03244 2209.00898 2158.98324 2114.17463 2066.55958 2017.99749 1970.95703 1913.78449 1857.11261 1802.79654 1751.19469 1699.64411 1654.93943 1613.68767 1578.81101 1556.59187 1542.87946 1537.66577 1538.88941 1540.55934 1543.87305 1551.42712 1559.77632 1568.01455 1577.18903 1588.35546 1601.56974 1614.15829 1626.96201 1638.10239 1645.85729 1653.89697 1661.17572 1664.71363 1661.72113 1648.00987 1600.79033 1482.24927 1352.97995
  25.00000 2759.32403 2768.54496 2765.09274 2751.76084 2727.72008 2687.03518 2610.87767 2565.20798 2593.38113 2623.82783 2628.88403 2618.71420 2603.92940 2580.61032 2549.52237 2516.01511 2471.11141 2424.86418 2376.43182 2326.18876 2270.60050 2214.79296 2164.15007 2119.28370 2072.12912 2023.70352 1976.96110 1920.38637 1863.75592 1809.54159 1758.14200 1706.47957 1661.61764 1620.22369 1584.97139 1562.48032 1548.92944 1544.24486 1546.13372 1548.56519 1552.28628 1559.99512 1568.53537 1576.80911 1585.86795 1596.87744 1609.83720 1622.13539 1634.58027 1645.45522 1653.18487 1661.16810 1668.26510 1671.68516 1668.66014 1654.97873 1607.77984 1488.71622 1359.54208
  26.00000 2758.15976 2767.18886 2763.72655 2751.00840 2728.89355 2689.68104 2617.01732 2571.64372 2595.07667 2626.41778 2631.87447 2621.99543 2607.52188 2584.14111 2553.50691 2520.45140 2475.78858 2430.59307 2382.43152 2331.84849 2276.91831 2220.41300 2169.22258 2124.22115 2077.50337 2029.20610 1982.69203 1926.74316 1870.22890 1816.10721 1764.86687 1713.03735 1667.97423 1626.51749 1590.99788 1568.23151 1554.76255 1550.51713 1552.96859 1556.07584 1560.15596 1567.99772 1576.67565 1584.97010 1593.92774 1604.79509 1617.51736 1629.55609 1641.68610 1652.32861 1660.03454 1667.97426 1674.85736 1678.10487 1674.99610 1661.22252 1613.81934 1494.02262 1365.05219
  27.00000 2756.46816 2765.28616 2761.83992 2750.03266 2729.89599 2692.29634 2623.13998 2577.87977 2596.74930 2628.83573 2634.67266 2625.17151 2610.99607 2587.53430 2557.48403 2524.75055 2480.42301 2436.21459 2388.38314 2337.40241 2282.97909 2225.89504 2174.23893 2129.02551 2082.70395 2034.54088 1988.20073 1932.90538 1876.57526 1822.53737 1771.41558 1719.38130 1674.07031 1632.62639 1596.95656 1573.94554 1560.50870 1556.62877 1559.55346 1563.24718 1567.62810 1575.57083 1584.32326 1592.61635 1601.47994 1612.21139 1624.70826 1636.51489 1648.36796 1658.80222 1666.48118 1674.38316 1681.01234 1684.01775 1680.75619 1666.74011 1618.86589 1498.09535 1369.40640
  28.00000 2754.18266 2762.80709 2759.48600 2748.83605 2730.61633 2694.74927 2629.05301 2583.73055 2598.34019 2630.99649 2637.23756 2628.19011 2614.31398 2590.82168 2561.47599 2528.95702 2485.03191 2441.72412 2394.28038 2342.86649 2288.76841 2231.25272 2179.21520 2133.71923 2087.73452 2039.72260 1993.51463 1938.89924 1882.80872 1828.84584 1777.80727 1725.54952 1679.94885 1638.57969 1602.87083 1579.66947 1566.24079 1562.66745 1565.98996 1570.18229 1574.80300 1582.81062 1591.57361 1599.83986 1608.61199 1619.20929 1631.49038 1643.08873 1654.69551 1664.93796 1672.58347 1680.44537 1686.77987 1689.47167 1685.98220 1671.56727 1622.95216 1500.99262 1372.67111
  29.00000 2751.26707 2759.73062 2756.72827 2747.40923 2730.93480 2696.88644 2634.54452 2589.05412 2599.80496 2632.82658 2639.53711 2630.99661 2617.42879 2594.02076 2565.47533 2533.09288 2489.60273 2447.09154 2400.08852 2348.23525 2294.26802 2236.48934 2184.14803 2138.31075 2092.58460 2044.74833 1998.64059 1944.72942 1888.91724 1835.02065 1784.03770 1731.55708 1685.63610 1644.38213 1608.72707 1585.40288 1571.97934 1568.66665 1572.32549 1576.93436 1581.73749 1589.77531 1598.49220 1606.70639 1615.38792 1625.85220 1637.92693 1649.33762 1660.72095 1670.78163 1678.38577 1686.19687 1692.20157 1694.51761 1690.72957 1675.77315 1626.17785 1502.88638 1375.05868
  30.00000 2747.71389 2756.04476 2753.62343 2745.72222 2730.72377 2698.53984 2639.39636 2593.75204 2601.11341 2634.26826 2641.54913 2633.53917 2620.29088 2597.13583 2569.44992 2537.16002 2494.10041 2452.26905 2405.75170 2353.48701 2299.46008 2241.60067 2189.01852 2142.79752 2097.23456 2049.60202 2003.56930 1950.38335 1894.86916 1841.03048 1790.08472 1737.40051 1691.14428 1650.01914 1614.48273 1591.10679 1577.70093 1574.61373 1578.56082 1583.51339 1588.45059 1596.48994 1605.11770 1613.25814 1621.85076 1632.18583 1644.06536 1655.30612 1666.48119 1676.36537 1683.92028 1691.66202 1697.31260 1699.20894 1695.06469 1679.45344 1628.69558 1504.03582 1376.89178
  31.00000 2743.54139 2751.74680 2750.20439 2743.71662 2729.84909 2699.53487 2643.39791 2597.76671 2602.24819 2635.28266 2643.26163 2635.77382 2622.85436 2600.15988 2573.34934 2541.14352 2498.47601 2457.20026 2411.20169 2358.59025 2304.33174 2246.57806 2193.79701 2147.16954 2101.66107 2054.25977 2008.28078 1955.83654 1900.62045 1846.83211 1795.91479 1743.06344 1696.47518 1655.46328 1620.07615 1596.71477 1583.34917 1580.46100 1584.66065 1589.89583 1594.93160 1602.95331 1611.46689 1619.51797 1628.02633 1638.24106 1649.93960 1661.02567 1672.00062 1681.71037 1689.20959 1696.85676 1702.14309 1703.59988 1699.06081 1682.72133 1630.69288 1504.75479 1378.55977
  32.00000 2738.78964 2746.84368 2746.46496 2741.29986 2728.17269 2699.69948 2646.36011 2601.07671 2603.20275 2635.85198 2644.67267 2637.66901 2625.08328 2603.07715 2577.11235 2545.01610 2502.67621 2461.82987 2416.36741 2363.51049 2308.87939 2251.41188 2198.44831 2151.41333 2105.84280 2058.69557 2012.75047 1961.05867 1906.12264 1852.37867 1801.49023 1748.52285 1701.62426 1660.68132 1625.43737 1602.14551 1588.84744 1586.13864 1590.56620 1596.03607 1601.15002 1609.14645 1617.54075 1625.49470 1633.92781 1644.03751 1655.57289 1666.51728 1677.29429 1686.82990 1694.26929 1701.79182 1706.71959 1707.74342 1702.79311 1685.69688 1632.37173 1505.37563 1380.47070
  33.00000 2733.51615 2741.35257 2742.34765 2738.34232 2725.55641 2698.87411 2648.12912 2603.69070 2603.97874 2635.98071 2645.78972 2639.20965 2626.95733 2605.86604 2580.67480 2548.74302 2506.65281 2466.11327 2421.18455 2368.21722 2313.11249 2256.09482 2202.93718 2155.51583 2109.76594 2062.88699 2016.95548 1966.01977 1911.33089 1857.62779 1806.77647 1753.75568 1706.58494 1665.64147 1630.49917 1607.31588 1594.11243 1591.56850 1596.20881 1601.87894 1607.06621 1615.04182 1623.33135 1631.18894 1639.56095 1649.58751 1660.98090 1671.79451 1682.37117 1691.73238 1699.11057 1706.47574 1711.06605 1711.68890 1706.33315 1688.49580 1633.92733 1506.21206 1383.00221
  34.00000 2727.79131 2735.30177 2737.73595 2734.67820 2721.86785 2696.92231 2648.59903 2605.64044 2604.58331 2635.69568 2646.62879 2640.40007 2628.47655 2608.50226 2583.97739 2552.28730 2510.37158 2470.02518 2425.60462 2372.69026 2317.05652 2260.62483 2207.23354 2159.46809 2113.42898 2066.82044 2020.88052 1970.69619 1916.21149 1862.54934 1811.74895 1758.74502 1711.35282 1670.32025 1635.20750 1612.15359 1599.06752 1596.67779 1601.52350 1607.37217 1612.64220 1620.61259 1628.82869 1636.59906 1644.92915 1654.90004 1666.17494 1676.86650 1687.23742 1696.42420 1703.74259 1710.91766 1715.20471 1715.47943 1709.74345 1691.21839 1635.52743 1507.52373 1386.45494
  35.00000 2721.69435 2728.73212 2732.45262 2730.11112 2716.98825 2693.74193 2647.72299 2606.97359 2605.02649 2635.04506 2647.21311 2641.26589 2629.66456 2610.96204 2586.97298 2555.61478 2513.81981 2473.56685 2429.60283 2376.92517 2320.75471 2265.00758 2211.31718 2163.26843 2116.84656 2070.49568 2024.52306 1975.07587 1920.74840 1867.13189 1816.39898 1763.48552 1715.92931 1674.70847 1639.53071 1616.60850 1603.65491 1601.41175 1606.46144 1612.47798 1617.85162 1625.84118 1634.02725 1641.72676 1650.03822 1659.98437 1671.16483 1681.74069 1691.89921 1700.91231 1708.17450 1715.12949 1719.15654 1719.14944 1713.07235 1693.93958 1637.29396 1509.48502 1391.01176
  36.00000 2715.30996 2721.69898 2726.26529 2724.42523 2710.82310 2689.27668 2645.52208 2607.74684 2605.31891 2634.09609 2647.57176 2641.85424 2630.56991 2613.22507 2589.63270 2558.69873 2517.01171 2476.77094 2433.18406 2380.93701 2324.26826 2269.25794 2215.18156 2166.92473 2120.05182 2073.92902 2027.89732 1979.16244 1924.94818 1871.38761 1820.73819 1767.98757 1720.32451 1678.81571 1643.46666 1620.66181 1607.84588 1605.74405 1611.00051 1617.18274 1622.68803 1630.72638 1638.93141 1646.58159 1654.90031 1664.85306 1675.96133 1686.42516 1696.36502 1705.20612 1712.41700 1719.12743 1722.94145 1722.72255 1716.34977 1696.70075 1639.28835 1512.16072 1396.70633
  37.00000 2708.72622 2714.27492 2718.90107 2717.40275 2703.31560 2683.52791 2642.09148 2608.01988 2605.47033 2632.93151 2647.73806 2642.23226 2631.26512 2615.27718 2591.95047 2561.52367 2519.99105 2479.70337 2436.38636 2384.76205 2327.67459 2273.40043 2218.83637 2170.45558 2123.09684 2077.15484 2031.03654 1982.97775 1928.84265 1875.35476 1824.80094 1772.27965 1724.55891 1682.67298 1647.04705 1624.33209 1611.64780 1609.68429 1615.15269 1621.50385 1627.17079 1635.28838 1643.55934 1651.18430 1659.53646 1669.52396 1680.57781 1690.93025 1700.64722 1709.31871 1716.48315 1722.93266 1726.57800 1726.20990 1719.58417 1699.50442 1641.50218 1515.49112 1403.40444
  38.00000 2702.03416 2706.55327 2710.07129 2708.84892 2694.46354 2676.56652 2637.60321 2607.85089 2605.48900 2631.64472 2647.74791 2642.48357 2631.84300 2617.11235 2593.94537 2564.08797 2522.83036 2482.46156 2439.28128 2388.45686 2331.06344 2277.46826 2222.30851 2173.89012 2126.05090 2080.22514 2033.99313 1986.56229 1932.48896 1879.09733 1828.64416 1776.40834 1728.66352 1686.33276 1650.33817 1627.67727 1615.10736 1613.28124 1618.96743 1625.49273 1631.34760 1639.57088 1647.94475 1655.56806 1663.97761 1674.02083 1685.03086 1695.26923 1704.76245 1713.26713 1720.38842 1726.57086 1730.08276 1729.60929 1722.76137 1702.31242 1643.85461 1519.28928 1410.80156
  39.00000 2695.32942 2698.65261 2699.50807 2698.62510 2684.33987 2668.54470 2632.30485 2607.29406 2605.38243 2630.33341 2647.63819 2642.70230 2632.40979 2618.73399 2595.66134 2566.40502 2525.62581 2485.16819 2441.97031 2392.09424 2334.53032 2281.50074 2225.64109 2177.26605 2128.99600 2083.20654 2036.83625 1989.97317 1935.96625 1882.70121 1832.34422 1780.43569 1732.67820 1689.86623 1653.43734 1630.79179 1618.30871 1616.62108 1622.52999 1629.23324 1635.29291 1643.63961 1652.13594 1659.77748 1668.26334 1678.37237 1689.33961 1699.45789 1708.73087 1717.07147 1724.14970 1730.07065 1733.46921 1732.90529 1725.84536 1705.04849 1646.19818 1523.25290 1418.44001
  40.00000 2688.71641 2690.72237 2687.01402 2686.69102 2673.11737 2659.70756 2626.51370 2606.39978 2605.15961 2629.09181 2647.44515 2642.98451 2633.07464 2620.15529 2597.16373 2568.50244 2528.48727 2487.95989 2444.57695 2395.75546 2338.16702 2285.53879 2228.89011 2180.62575 2132.01929 2086.17445 2039.64633 1993.27910 1939.36848 1886.26626 1835.99013 1784.43317 1736.64779 1693.35676 1656.46427 1633.79787 1621.36586 1619.81952 1625.95362 1632.83427 1639.10139 1647.57649 1656.19158 1663.86463 1672.43806 1682.60915 1693.52348 1703.51264 1712.57384 1720.75261 1727.78323 1733.46047 1736.74607 1736.07047 1728.78180 1707.60620 1648.33452 1526.99348 1425.74927
  41.00000 2682.31545 2682.94966 2672.52655 2673.15705 2661.09783 2650.40425 2620.60565 2605.21800 2604.83515 2628.00129 2647.20300 2643.41677 2633.93510 2621.39835 2598.53206 2570.41920 2531.52268 2490.97002 2447.23351 2399.51831 2342.04889 2289.61828 2232.11858 2184.01005 2135.20200 2089.20387 2042.50612 1996.55200 1942.79286 1889.89380 1839.67267 1788.47190 1740.61567 1696.88958 1659.54661 1636.83015 1624.40809 1623.00680 1629.36470 1636.41579 1642.87554 1651.46884 1660.17270 1667.88175 1676.54425 1686.75824 1697.59809 1707.44702 1716.30983 1724.32849 1731.30117 1736.76395 1739.91516 1739.06809 1731.50452 1709.86294 1650.04144 1530.08544 1432.11286
  42.00000 2676.27328 2675.56738 2656.19825 2658.34736 2648.74611 2641.09862 2614.99830 2603.80544 2604.43549 2627.11945 2646.94271 2644.06139 2635.05812 2622.49199 2599.84869 2572.20009 2534.81610 2494.30498 2450.06225 2403.44045 2346.21849 2293.76097 2235.38753 2187.44953 2138.60444 2092.35659 2045.48772 1999.85474 1946.32322 1893.66878 1843.46888 1792.60866 1744.61445 1700.53671 1662.79883 1640.01258 1627.55778 1626.30468 1632.87981 1640.08726 1646.70674 1655.39264 1664.13021 1671.87008 1680.61221 1690.83517 1701.56910 1711.26642 1719.94840 1727.80854 1734.70674 1739.99349 1742.96871 1741.85640 1733.94554 1711.70089 1651.11307 1532.13762 1436.96509
  43.00000 2670.77740 2668.86385 2638.49473 2642.87485 2636.72939 2632.37918 2610.12765 2602.23710 2604.00761 2626.46738 2646.69109 2644.93833 2636.45612 2623.46799 2601.18259 2573.88730 2538.39872 2498.01322 2453.15000 2407.53741 2350.66518 2297.96276 2238.74370 2190.95284 2142.24674 2095.66416 2048.63531 2003.22462 1950.00787 1897.63619 1847.42137 1796.86703 1748.65344 1704.33695 1666.29391 1643.42694 1630.89929 1629.79423 1636.57360 1643.91760 1650.64872 1659.38948 1668.08759 1675.84428 1684.64590 1694.83276 1705.42367 1714.96059 1723.48193 1731.18626 1737.98776 1743.14183 1745.88594 1744.39472 1736.04885 1713.03573 1651.41440 1532.89000 1439.92140
  44.00000 2666.07464 2663.19399 2620.31144 2627.72876 2625.96210 2624.96817 2606.41773 2600.62285 2603.63041 2626.01531 2646.47024 2646.00327 2638.05775 2624.35557 2602.56796 2575.50880 2542.21204 2502.04625 2456.51567 2411.75488 2355.30054 2302.17894 2242.20359 2194.49204 2146.08475 2099.10642 2051.94288 2006.65200 1953.83134 1901.77103 1851.51196 1801.21338 1752.70256 1708.27012 1670.02674 1647.07184 1634.43835 1633.47365 1640.43661 1647.89555 1654.68282 1663.43606 1672.01796 1679.77208 1688.60458 1698.70672 1709.11926 1718.49389 1726.87494 1734.42962 1741.10840 1746.17157 1748.62915 1746.65169 1737.78874 1713.85413 1650.95197 1532.33806 1440.94547
  45.00000 2662.49441 2658.99224 2603.11079 2614.37589 2617.65689 2619.72969 2604.24262 2599.12939 2603.42912 2625.66633 2646.29745 2647.12159 2639.67286 2625.17396 2603.97702 2577.06305 2546.06264 2506.21100 2460.07008 2415.93468 2359.92901 2306.30634 2245.73329 2197.98432 2149.98088 2102.58504 2055.32678 2010.05385 1957.67936 1905.94129 1855.62911 1805.52698 1756.67231 1712.22528 1673.86882 1650.81143 1638.05067 1637.20495 1644.32196 1651.87976 1658.67407 1667.40595 1675.81517 1683.54854 1692.37960 1702.35739 1712.56962 1721.79297 1730.05064 1737.46917 1743.99901 1749.00226 1751.13901 1748.61568 1739.19274 1714.26058 1649.96201 1530.88743 1440.55669
  46.00000 2660.47710 2656.78729 2589.08118 2604.87623 2613.38187 2617.67659 2603.88021 2598.00848 2603.59298 2625.23826 2646.18552 2648.03818 2640.95124 2625.92276 2605.28649 2578.49980 2549.56772 2510.11278 2463.56730 2419.77382 2364.21356 2310.16192 2249.22410 2201.27019 2153.66932 2105.89172 2058.59234 2013.24159 1961.29672 1909.86334 1859.52861 1809.56395 1760.38952 1715.96226 1677.51327 1654.31288 1641.41907 1640.64853 1647.87985 1655.53733 1662.31727 1671.02242 1679.25817 1686.96443 1695.76606 1705.60759 1715.62748 1724.73167 1732.87464 1740.18356 1746.54383 1751.49513 1753.32915 1750.30772 1740.36990 1714.53464 1649.01782 1529.54158 1440.08145
  47.00000 2660.60795 2657.21877 2581.31921 2602.01393 2615.12475 2619.97615 2605.45716 2597.63180 2604.39654 2624.44357 2646.14378 2648.34245 2641.33476 2626.57000 2606.23724 2579.69657 2552.09078 2513.08807 2466.54696 2422.77624 2367.63602 2313.45768 2252.46320 2204.08755 2156.71536 2108.67068 2061.39441 2015.88281 1964.23712 1913.04918 1862.78697 1812.91442 1763.56846 1719.06597 1680.40946 1656.97176 1643.95801 1643.18474 1650.47896 1658.27019 1665.07230 1673.80211 1681.96828 1689.66835 1698.42886 1708.17595 1718.06398 1727.11282 1735.13544 1742.38244 1748.56652 1753.43500 1755.08005 1751.79721 1741.54462 1715.19938 1649.15769 1530.12484 1441.95151
  48.00000 2663.65695 2661.05602 2584.03660 2609.44458 2625.36410 2627.95420 2608.88435 2598.53307 2606.22484 2622.86725 2646.17969 2647.42862 2640.00241 2627.03769 2606.38663 2580.43048 2552.66658 2514.12655 2468.26686 2424.19663 2369.45173 2315.77151 2255.09935 2206.04146 2158.46827 2110.37487 2063.19108 2017.45651 1965.80486 1914.74488 1864.74706 1814.95243 1765.77711 1720.89306 1681.68659 1657.82432 1644.72465 1643.82132 1651.11366 1659.12809 1666.08775 1674.98829 1683.35859 1691.12197 1699.86269 1709.64558 1719.54426 1728.64688 1736.52159 1743.78633 1749.81324 1754.50941 1756.23206 1753.22046 1743.09669 1717.10182 1652.03509 1535.54372 1450.05323
  49.00000 2065.86222 2057.39839 2016.22170 2030.20625 2044.98997 2043.86973 2025.24965 2018.65472 2020.42525 2030.75830 2039.65757 2036.57274 2030.17731 2023.90526 2009.17345 1993.50571 1978.50546 1953.84901 1927.64130 1901.66982 1869.93307 1838.44413 1802.67160 1771.73984 1743.93263 1713.49931 1683.92506 1654.05805 1621.23017 1586.83499 1554.81464 1523.26658 1492.07132 1462.80877 1435.56509 1417.52271 1406.06381 1402.10821 1403.75017 1406.89436 1408.84080 1412.89551 1416.64914 1419.44113 1424.31387 1429.99272 1434.92230 1439.74509 1442.87035 1445.87209 1447.80513 1448.59476 1446.65532 1440.55753 1428.89873 1406.31672 1356.57315 1278.03237 1217.01810
  50.00000 1643.45825 1634.20899 1613.57246 1623.22235 1634.92277 1636.57504 1626.19488 1619.33669 1621.26635 1628.07689 1627.69336 1624.06508 1619.48350 1616.81558 1607.77915 1598.70802 1589.09329 1574.58766 1559.71473 1543.76610 1525.43088 1506.08875 1484.32428 1465.19776 1446.39222 1427.38815 1407.92020 1387.08375 1364.29147 1340.02236 1317.37710 1296.56507 1275.59735 1257.43524 1239.86773 1226.72889 1216.83919 1211.25860 1209.78913 1209.70151 1209.53174 1210.93398 1212.62492 1214.06984 1216.75813 1220.32636 1223.16333 1225.43263 1226.68423 1228.76696 1229.95182 1229.41629 1226.39515 1220.38227 1210.38729 1193.12450 1157.89809 1102.45497 1055.71332
  51.00000 1494.75411 1485.22834 1471.82282 1479.94673 1490.56169 1493.19000 1485.71065 1478.75977 1480.74545 1486.31593 1482.66446 1478.84485 1474.90183 1473.50272 1466.47130 1459.72246 1452.00365 1441.07156 1430.18895 1417.76879 1404.15148 1389.08553 1372.25250 1357.28192 1341.64535 1326.66487 1310.75476 1293.09745 1273.83813 1253.13382 1233.78900 1216.75651 1199.38931 1185.13504 1170.97394 1159.56136 1150.22408 1144.07143 1141.50660 1140.28125 1139.36648 1139.83495 1140.79973 1141.77043 1143.68969 1146.51490 1148.61518 1149.98554 1150.57753 1152.33673 1153.25819 1152.25615 1148.85422 1142.87122 1133.46198 1118.07178 1087.95603 1040.64427  998.92719
  52.00000 1396.00533 1386.29595 1377.69227 1384.80283 1394.69698 1397.97344 1392.42040 1385.40798 1387.43086 1392.17786 1386.35627 1382.40962 1378.89063 1378.33409 1372.63413 1367.42743 1360.96764 1352.40858 1344.17579 1334.09876 1323.61443 1311.38814 1297.82988 1285.61911 1272.08693 1259.77836 1246.23089 1230.68472 1213.77150 1195.43445 1178.28131 1163.75868 1148.78245 1137.12322 1125.22419 1114.95795 1105.98752 1099.45498 1096.16277 1094.18189 1092.77240 1092.62077 1093.10335 1093.75913 1095.16771 1097.49951 1099.11058 1099.88399 1100.03796 1101.58231 1102.32887 1101.01704 1097.36223 1091.39908 1082.37880 1068.23212 1041.51017  999.59813  961.21767
  53.00000 1323.88875 1314.04528 1308.94839 1315.31890 1324.68665 1328.43645 1324.29021 1317.23284 1319.28289 1323.42849 1316.02206 1311.98263 1308.77332 1308.83210 1304.10451 1300.02405 1294.48371 1287.65770 1281.36008 1272.99424 1264.79794 1254.64546 1243.47878 1233.28351 1221.28818 1210.93091 1199.10887 1185.10448 1169.90463 1153.29639 1137.74386 1125.05417 1111.82408 1102.06001 1091.81299 1082.38392 1073.68140 1066.87143 1063.04801 1060.51537 1058.74458 1058.14010 1058.27051 1058.69631 1059.73194 1061.70339 1062.95720 1063.29465 1063.12873 1064.51618 1065.13501 1063.59693 1059.75744 1053.80879 1045.07258 1031.83405 1007.59059  969.62199  933.67828
  54.00000 1268.83188 1258.88603 1256.46639 1262.27191 1271.23777 1275.34895 1272.27671 1265.18503 1267.25582 1270.94229 1262.32592 1258.21566 1255.24277 1255.77132 1251.78608 1248.56543 1243.72705 1238.22411 1233.40389 1226.34445 1219.89492 1211.32568 1201.98484 1193.32828 1182.50624 1173.63868 1163.13392 1150.30658 1136.41479 1121.12640 1106.79583 1095.50550 1083.60849 1075.29127 1066.30545 1057.51553 1049.01754 1041.99576 1037.76679 1034.81291 1032.76629 1031.81608 1031.67764 1031.92786 1032.67876 1034.37511 1035.35616 1035.36079 1034.95066 1036.21832 1036.73963 1035.02883 1031.04835 1025.11077 1016.59141 1004.04620  981.69493  946.73692  912.65353
  55.00000 1225.69331 1215.66724 1215.34529 1220.70813 1229.35910 1233.75342 1231.52270 1224.40413 1226.49118 1229.81791 1220.25352 1216.08776 1213.30011 1214.19674 1210.79314 1208.24618 1203.95780 1199.49153 1195.82889 1189.79304 1184.71217 1177.38343 1169.47319 1162.02225 1152.11952 1144.41919 1134.94655 1123.04147 1110.17458 1095.92033 1082.54720 1072.35330 1061.50079 1054.31722 1046.31959 1038.03045 1029.69272 1022.50499 1017.95826 1014.67432 1012.41158 1011.19049 1010.84139 1010.95404 1011.48185 1012.96265 1013.72999 1013.47384 1012.87236 1014.04616 1014.49107 1012.64493 1008.55398 1002.62507  994.27564  982.27366  961.40497  928.80584  896.18006
  56.00000 1191.31000 1181.22000 1182.57000 1187.58000 1195.98000 1200.60000 1199.04000 1191.90000 1194.00000 1197.04000 1186.72000 1182.51000 1179.87000 1181.06000 1178.12000 1176.11000 1172.26000 1168.62000 1165.88000 1160.66000 1156.67000 1150.33000 1143.56000 1137.07000 1127.90000 1121.13000 1112.48000 1101.31000 1089.26000 1075.83000 1063.22000 1053.90000 1043.88000 1037.60000 1030.39000 1022.50000 1014.29000 1006.97000 1002.17000  998.62300  996.18800  994.75100  994.23400  994.23700  994.58700  995.89600  996.49300  996.02900  995.27500  996.37400  996.75800  994.80400  990.62500  984.70300  976.48900  964.92000  945.23300  914.51400  883.05000
  57.00000 1186.02342 1176.01311 1177.50114 1182.32449 1190.57838 1195.06794 1193.41547 1186.39467 1188.41552 1191.44748 1181.23859 1177.05675 1174.43185 1175.57931 1172.66788 1170.66657 1166.86665 1163.28375 1160.59870 1155.48351 1151.56912 1145.35976 1138.72957 1132.35016 1123.35774 1116.72554 1108.20610 1097.21317 1085.33615 1072.06763 1059.62298 1050.42822 1040.53050 1034.31532 1027.13369 1019.23845 1011.00755 1003.63982  998.79736  995.19004  992.69117  991.20672  990.62793  990.56611  990.88740  992.14183  992.69105  992.18675  991.38156  992.40034  992.71057  990.69728  986.45209  980.43266  972.12483  960.48500  940.74728  910.08063  878.80295
  58.00000 1165.58182 1155.87250 1157.86103 1161.98619 1169.68000 1173.67994 1171.68609 1165.12238 1166.85941 1169.86218 1160.07569 1155.99833 1153.43047 1154.41858 1151.61096 1149.64494 1146.03275 1142.66429 1140.18676 1135.46417 1131.83797 1126.12042 1120.02080 1114.06362 1105.74621 1099.64083 1091.62271 1081.30790 1070.09206 1057.44545 1045.63623 1036.92397 1027.50012 1021.53994 1014.47797 1006.57391  998.27308  990.73292  985.73236  981.89536  979.15798  977.49239  976.67799  976.37006  976.57676  977.61926  977.98225  977.32010  976.31973  977.03575  977.06407  974.82634  970.33411  963.95547  955.30430  943.40274  923.48188  893.02979  862.48603
  59.00000 1146.21318 1136.77841 1139.19104 1142.69039 1149.86116 1153.41950 1151.12640 1144.98973 1146.49089 1149.46855 1140.07164 1136.08702 1133.57143 1134.41652 1131.69752 1129.76756 1126.32459 1123.14987 1120.86159 1116.49209 1113.13266 1107.86101 1102.24890 1096.68358 1088.98803 1083.37259 1075.82400 1066.14168 1055.54049 1043.47930 1032.26607 1024.00815 1015.03477 1009.32282 1002.38935  994.49443  986.14394  978.45887  973.31783  969.26881  966.31821  964.48454  963.45197  962.91762  963.01037  963.85063  964.03489  963.22009  962.03881  962.47903  962.24517  959.80193  955.08899  948.39619  939.44875  927.31732  907.24214  877.01095  847.18169
  60.00000 1127.84850 1118.66435 1121.43244 1124.37199 1131.05433 1134.21476 1131.66041 1125.92256 1127.23022 1130.18601 1121.14894 1117.24694 1114.77955 1115.49668 1112.85311 1110.95994 1107.66964 1104.67004 1102.55443 1098.50230 1095.38993 1090.52241 1085.35825 1080.15673 1073.03410 1067.87435 1060.76569 1051.67347 1041.64387 1030.13395 1019.47992 1011.64998 1003.10497  997.63451  990.83712  982.96742  974.58556  966.78059  961.51522  957.27062  954.12983  952.14020  950.90551  950.16278  950.14243  950.78957  950.80221  949.83972  948.49050  948.67933  948.20139  945.56984  940.65990  933.69341  924.49171  912.15894  891.95487  861.94872  832.81309
  61.00000 1110.42330 1101.46815 1104.53013 1106.97003 1113.19630 1115.99857 1113.21712 1107.85163 1109.00313 1111.93951 1103.23536 1099.40730 1096.98470 1097.58776 1095.00820 1093.15250 1090.00007 1087.15889 1085.20094 1081.43388 1078.55048 1074.04908 1069.29656 1064.43293 1057.83816 1053.10232 1046.40604 1037.86454 1028.36664 1017.37611 1007.24696  999.82033  991.68280  986.44717  979.79225  971.96211  963.56538  955.66317  950.28830  945.86340  942.55340  940.41900  938.99699  938.06236  937.92997  938.39261  938.24033  937.13490  935.62954  935.58904  934.88362  932.07934  926.99375  919.78984  910.37132  897.86274  877.55215  847.77327  819.30931
  62.00000 1093.87734 1085.13162 1088.43238 1090.42739 1096.22786 1098.70806 1095.73022 1090.71226 1091.74041 1094.65918 1086.26358 1082.50205 1080.12142 1080.62320 1078.09784 1076.28025 1073.25250 1070.55475 1068.74086 1065.22976 1062.55869 1058.38891 1054.01471 1049.46505 1043.35664 1039.01523 1032.70568 1024.67835 1015.67524 1005.17427  995.53800  988.49158  980.74180  975.73441  969.22728  961.44948  953.05271  945.07377  939.60301  935.01202  931.55188  929.28308  927.68737  926.57592  926.33273  926.61895  926.30812  925.06427  923.41349  923.16357  922.24591  919.28302  914.04095  906.63212  897.03003  884.36847  863.97098  834.41995  806.60488
  63.00000 1078.15427 1069.60036 1073.09067 1074.69060 1080.09356 1082.28448 1079.13776 1074.44405 1075.37754 1078.27994 1070.17086 1066.46959 1064.12860 1064.54091 1062.06137 1060.28248 1057.36768 1054.79995 1053.11784 1049.83646 1047.36245 1043.49293 1039.46649 1035.20872 1029.54853 1025.57419 1019.62749 1012.08039 1003.53793  993.49864  984.32540  977.63759  970.25690  965.47127  959.11628  951.40215  943.01864  934.98152  929.42730  924.68345  921.09048  918.69688  916.94002  915.66552  915.31290  915.43034  914.96697  913.58904  911.80256  911.36118  910.24523  907.13653  901.75519  894.17045  884.41432  871.62014  851.15292  821.82890  794.63937
  64.00000 1063.20146 1054.82345 1058.45943 1059.70957 1064.74147 1066.67284 1063.38191 1058.99060 1059.85444 1062.74119 1054.89870 1051.25245 1048.94925 1049.28295 1046.84213 1045.10248 1042.29022 1039.84054 1038.27910 1035.20384 1032.91287 1029.31519 1025.60851 1021.62223 1016.37519 1012.74256 1007.13648 1000.03812  991.92471  982.32105  973.58302  967.23359  960.20439  955.63409  949.43473  941.79426  933.43591  925.35734  919.73105  914.84665  911.13657  908.62703  906.72058  905.29559  904.83506  904.79091  904.18067  902.67281  900.75944  900.14279  898.84133  895.59839  890.09320  882.35844  872.47439  859.56573  839.04373  809.94468  783.35700
  65.00000 1048.96971 1040.75328 1044.49594 1045.43741 1050.12296 1051.82172 1048.40861 1044.29921 1045.11508 1047.98647 1040.39259 1036.79704 1034.53014 1034.79526 1032.38720 1030.68730 1027.96837 1025.62605 1024.17525 1021.28492 1019.16411 1015.81254 1012.39995 1008.66637 1003.80024 1000.48579  995.19964  988.52079  980.80724  971.61487  963.28611  957.25613  950.56176  946.20052  940.15944  932.60141  924.27885  916.17389  910.48596  905.47244  901.65947  899.04222  896.99681  895.43280  894.86596  894.66699  893.91529  892.28145  890.24918  889.47179  887.99655  884.62982  879.01456  871.15284  861.16392  848.15691  827.59311  798.71596  772.70629
  66.00000 1035.41302 1027.34530 1031.16008 1031.83017 1036.19249 1037.68303 1034.16739 1030.32069 1031.10729 1033.96322 1026.60171 1023.05333 1020.82163 1021.02737 1018.64714 1016.98746 1014.35372 1012.10925 1010.76008 1008.03567 1006.07321 1002.94446  999.80246  996.30424  991.78941  988.77133  983.78586  977.49942  970.15872  961.35490  953.41123  947.68301  941.30772  937.14935  931.26851  923.80060  915.52326  907.40544  901.66538  896.53339  892.63041  889.91304  887.73845  886.04587  885.37443  885.02703  884.13895  882.38292  880.23897  879.31391  877.67563  874.19454  868.48152  860.51330  850.43982  837.34876  816.75438  788.09520  762.63971
  67.00000 1022.48841 1014.55784 1018.41420 1018.84670 1022.90740 1024.21178 1020.61111 1017.00908 1017.78243 1020.62249 1013.47871 1009.97467 1007.77736 1007.93222 1005.57579 1003.95675 1001.40105  999.24599  997.99031  995.41480  993.59988  990.67290  987.78000  984.50113  980.31042  977.56851  972.86581  966.94661  959.95385  951.51731  943.93621  938.49318  932.42211  928.46054  922.74123  915.37009  907.14633  899.02778  893.24430  888.00372  884.02236  881.21189  878.91713  877.10550  876.33123  875.84143  874.82179  872.94719  870.69809  869.63706  867.84557  864.25863  858.45881  850.40224  840.26199  827.09957  806.48424  778.03838  753.11337
  68.00000 1010.15569 1002.35191 1006.22298 1006.44848 1010.22774 1011.36590 1007.69571 1004.32147 1005.09519 1007.91868 1000.97944  997.51755  995.35409  995.46587  993.13003  991.55202  989.06807  986.99495  985.82546  983.38366  981.70632  978.96214  976.29867  973.22442  969.33289  966.84842  962.41182  956.83654  950.16869  942.07958  934.84006  929.66672  923.88581  920.11510  914.55802  907.28939  899.12657  891.01816  885.19917  879.85920  875.80995  872.91289  870.50621  868.58420  867.70894  867.08240  865.93579  863.94607  861.59773  860.41121  858.47550  854.79037  848.91350  840.78459  830.59314  817.37056  796.74251  768.50476  744.08680
  69.00000  998.37731  990.69104  994.55328  994.59941  998.11612  999.10602  995.38007  992.21776  993.00332  995.80933  989.06274  985.64137  983.51145  983.58733  981.26957  979.73294  977.31526  975.31748  974.22761  971.90598  970.35714  967.77863  965.32662  962.44341  958.82820  956.58380  952.39780  947.14483  940.78063  933.02039  926.10289  921.18476  915.68073  912.09505  906.70038  899.53914  891.44374  883.35513  877.50786  872.07704  867.96937  864.99170  862.48073  860.45622  859.48184  858.72392  857.45466  855.35313  852.91086  851.60819  849.53650  845.76008  839.81480  831.62768  821.39856  808.12570  787.49192  759.45657  735.52260
  70.00000  987.11817  979.54112  983.37397  983.26568  986.53748  987.39532  983.62575  980.66052  981.46748  984.25490  977.69026  974.30825  972.21178  972.25834  969.95679  968.46186  966.10567  964.17743  963.16130  960.94778  959.51910  957.09088  954.83392  952.12924  948.76938  946.74899  942.79915  937.84845  931.76830  924.31959  917.70592  913.02943  907.78971  904.38339  899.15083  892.10108  884.07875  876.01854  870.14957  864.63584  860.47824  857.42552  854.81723  852.69740  851.62581  850.74156  849.35375  847.14357  844.61215  843.20169  841.00155  837.14002  831.13398  822.90103  812.64599  799.33152  778.69788  750.85887  727.38626
  71.00000  976.34546  968.87023  972.65585  972.41563  975.45902  976.19937  972.39686  969.61478  970.45100  973.21854  966.82625  963.48286  961.41989  961.44321  959.15654  957.70361  955.40477  953.54097  952.59332  950.47724  949.16107  946.86932  944.79243  942.25474  939.13106  937.31978  933.59269  928.92568  923.11150  915.95814  909.63131  905.18381  900.19653  896.96399  891.89283  884.95799  877.01362  868.98943  863.10473  857.51547  853.31556  850.19292  847.49374  845.28509  844.11821  843.11240  841.60992  839.29412  836.67787  835.16701  832.84532  828.90425  822.84418  814.57624  804.30540  790.95692  770.32832  742.67928  719.64593
  72.00000  966.02850  958.64851  962.37153  962.01961  964.85000  965.48596  961.65986  959.04789  959.91969  962.66596  956.43736  953.13223  951.10299  951.10863  948.83601  947.42531  945.18027  943.37645  942.49258  940.46449  939.25385  937.08617  935.17569  932.79439  929.88931  928.27337  924.75655  920.35602  914.79115  907.91799  901.86224  897.63185  892.88579  889.82161  884.91075  878.09361  870.23141  862.24995  856.35495  850.69702  846.46163  843.27380  840.48961  838.19805  836.93783  835.81495  834.20149  831.78295  829.08575  827.48107  825.04412  821.02849  814.92031  806.62683  796.34884  782.97300  762.35345  734.88784  712.27220
  73.00000  956.13863  948.84802  952.49529  952.04985  954.68165  955.22496  951.38345  948.92934  949.84171  952.56521  946.49255  943.22561  941.23045  941.22351  938.96452  937.59628  935.40200  933.65429  932.83000  930.88158  929.77006  927.71536  925.95885  923.72417  921.02163  919.58826  916.27011  912.12012  906.78921  900.18213  894.38274  890.35838  885.84292  882.94182  878.18982  871.49258  863.71614  855.78332  849.88293  844.16269  839.89792  836.64928  833.78550  831.41638  830.06476  828.82905  827.10810  824.58960  821.81492  820.12223  817.57579  813.49004  807.33895  799.02810  788.75033  775.35290  754.74567  727.45679  705.23793
  74.00000  946.64904  939.44264  943.00298  942.48032  944.92701  945.38817  941.53835  939.23064  940.18737  942.88652  936.96284  933.73432  931.77368  931.75884  929.51343  928.18785  926.04174  924.34678  923.57836  921.70227  920.68402  918.73241  917.11853  915.02149  912.50679  911.24420  908.11391  904.19971  899.08861  892.73441  887.17771  883.34901  879.05413  876.31094  871.71609  865.14043  857.45277  849.57372  843.67240  837.89577  833.60705  830.30164  827.36324  824.92140  823.48034  822.13581  820.31068  817.69486  814.84580  813.07023  810.41957  806.26769  800.07820  791.75704  781.48568  768.07167  747.47934  720.36042  698.51804
  75.00000  937.53469  930.40791  933.87197  933.28665  935.56082  935.94924  932.09723  929.92518  930.92902  933.60218  927.82124  924.63157  922.70600  922.68754  920.45600  919.17324  917.07312  915.42802  914.71215  912.90201  911.97167  910.11433  908.63276  906.66509  904.32484  903.22210  900.26963  896.57755  891.67325  885.55960  880.23285  876.59013  872.50633  869.91603  865.47634  859.02349  851.42711  843.60632  837.70809  831.88056  827.57272  824.21427  821.20580  818.69563  817.16705  815.71748  813.79132  811.08070  808.16007  806.30612  803.55604  799.34157  793.11761  784.79217  774.53240  761.10612  740.53068  713.57492  692.08941
  76.00000  928.77216  921.72096  925.08098  924.44603  926.55944  926.88350  923.03456  920.98811  922.04088  924.68638  919.04259  915.89242  914.00250  913.98437  911.76722  910.52742  908.47149  906.87379  906.20753  904.45775  903.61044  901.83952  900.48089  898.63500  896.45696  895.50396  892.71998  889.23737  884.52790  878.64329  873.53465  870.06884  866.18715  863.74486  859.45812  853.12885  845.62580  837.86711  831.97562  826.10227  821.77958  818.37155  815.29718  812.72265  811.10847  809.55744  807.53322  804.73023  801.74051  799.81212  796.96703  792.69313  786.43809  778.11348  767.86957  754.43471  733.87764  707.07825  685.93068
  77.00000  920.33956  913.36039  916.61006  915.93708  917.90073  918.16788  914.32650  912.39620  913.49892  916.11507  910.60342  907.49355  905.63996  905.62574  903.42377  902.22704  900.21381  898.66139  898.04215  896.34792  895.57915  893.88773  892.64352  890.91241  888.88543  888.07282  885.44866  882.16381  877.63817  871.97184  867.07028  863.77291  860.08485  857.78581  853.64961  847.44435  840.03625  832.34295  826.46146  820.54704  816.21327  812.75883  809.62239  806.98707  805.28919  803.64008  801.52064  798.62759  795.57099  793.57160  790.63552  786.30499  780.02178  771.70233  761.47770  748.03741  727.49974  700.84999  680.02213
  78.00000  912.21644  905.30617  908.44048  907.73977  909.56394  909.78079  905.95075  904.12777  905.28075  907.86584  902.48187  899.41323  897.59666  897.58964  895.40381  894.25025  892.27852  890.76963  890.19513  888.55228  887.85797  886.23990  885.10240  883.47966  881.59356  880.91271  878.44028  875.34238  870.99045  865.53235  860.82762  857.69077  854.18832  852.02791  848.03968  841.95849  834.64658  827.02145  821.15291  815.20180  810.86027  807.36236  804.16735  801.47447  799.69478  797.95077  795.73879  792.75791  789.63641  787.56900  784.54560  780.16092  773.85202  765.54130  755.33868  741.89562  721.37799  694.87123  674.34555
  79.00000  904.38365  897.53958  900.55468  899.83534  901.52963  901.70205  897.88650  896.16257  897.36550  899.91785  894.65754  891.63117  889.85238  889.85555  887.68700  886.57666  884.64549  883.17866  882.64689  881.05186  880.42828  878.87816  877.84037  876.32010  874.56563  874.00855  871.68037  868.75938  864.57188  859.31263  854.79520  851.81146  848.48702  846.46076  842.61779  836.66044  829.44562  821.89097  816.03801  810.05429  805.70789  802.16923  798.91887  796.17133  794.31167  792.47578  790.17381  787.10722  783.92258  781.78972  778.68236  774.24573  767.91323  759.61419  749.43567  735.99206  715.49476  689.12445  668.88413
  80.00000  896.82333  890.04309  892.93614  892.20622  893.77961  893.91277  890.11431  888.48167  889.73373  892.25165  887.11143  884.12847  882.38819  882.40430  880.25429  879.18722  877.29589  875.86991  875.37912  873.82889  873.27263  871.78574  870.84131  869.41811  867.78686  867.34617  865.15524  862.40190  858.37031  853.30116  848.96215  846.12461  842.97100  841.07453  837.37398  831.53997  824.42281  816.94056  811.10554  805.09298  800.74424  797.16732  793.86454  791.06497  789.12715  787.20224  784.81271  781.66244  778.41622  776.22011  773.03185  768.54521  762.19085  753.90586  743.75297  730.31065  709.83371  683.59345  663.62236
  81.00000  889.51874  882.80030  885.56939  884.83596  886.29684  886.39528  882.61600  881.06740  882.36730  884.84914  879.82583  876.88746  875.18647  875.21800  873.08791  872.06414  870.21212  868.82602  868.37468  866.86671  866.37466  864.94687  864.09007  862.75896  861.24328  860.91216  858.85201  856.25776  852.37426  847.48701  843.31819  840.62038  837.63079  835.85989  832.29883  826.58740  819.56824  812.15989  806.34492  800.30703  795.95812  792.34526  788.99276  786.14348  784.12930  782.11807  779.64329  776.41128  773.10486  770.84738  767.58102  763.04608  756.67131  748.40222  738.27599  724.83646  704.37965  678.26319  658.54591
  82.00000  882.45428  875.79586  878.43988  877.70914  879.06534  879.13305  875.37460  873.90325  875.24933  877.69346  872.78420  869.89166  868.23075  868.27997  866.17125  865.19078  863.37771  862.03073  861.61750  860.14970  859.71902  858.34675  857.57241  856.32882  854.92178  854.69393  852.75852  850.31544  846.57286  841.85988  837.85358  835.28944  832.45747  830.80804  827.38345  821.79364  814.87253  807.53928  801.74623  795.68625  791.33905  787.69236  784.29261  781.39574  779.30695  777.21194  774.65410  771.34222  767.97682  765.65955  762.31765  757.73590  751.34189  743.09011  732.99116  719.55563  699.11851  673.11976  653.64155
  83.00000  875.61531  869.01542  871.53398  870.81131  872.07016  872.11062  868.37426  866.97379  868.36406  870.76891  865.97115  863.12572  861.50564  861.57462  859.48881  858.55161  856.77729  855.46884  855.09258  853.66322  853.29133  851.97147  851.27492  850.11468  848.80998  848.67959  846.86332  844.56409  840.95587  836.41000  832.55911  830.12300  827.44254  825.91061  822.61941  817.15008  810.32687  803.06958  797.30011  791.22105  786.87716  783.19862  779.75386  776.81128  774.64959  772.47323  769.83442  766.44446  763.02114  760.64541  757.23030  752.60306  746.19074  737.95728  727.88585  714.45526  694.03721  668.15027  648.89707
  84.00000  868.98819  862.44554  864.83888  864.12894  865.29729  865.31351  861.60015  860.26462  861.69681  864.06084  859.37231  856.57529  854.99681  855.08741  853.02607  852.13212  850.39647  849.12612  848.78584  847.39355  847.07809  845.80799  845.18502  844.10428  842.89624  842.85793  841.15558  838.99345  835.51357  831.12816  827.42605  825.11268  822.57797  821.15970  817.99876  812.64860  805.92294  798.74222  792.99779  786.90245  782.56320  778.85461  775.36691  772.38030  770.14739  767.89198  765.17417  761.70784  758.22755  755.79445  752.30828  747.63667  741.20677  732.99229  722.94831  709.52336  689.12364  663.34279  644.30118
  85.00000  862.56014  856.07366  858.34256  857.64937  858.73360  858.72819  855.03844  853.76227  855.23391  857.55562  852.97430  850.22697  848.69086  848.80478  846.76951  845.91876  844.22181  842.98927  842.68413  841.32784  841.06665  839.84405  839.29087  838.28612  837.16959  837.21840  835.62512  833.59384  830.23682  826.00563  822.44614  820.25057  817.85617  816.54783  813.51399  808.28155  801.65290  794.54911  788.83101  782.72196  778.38847  774.65151  771.12275  768.09361  765.79112  763.45882  760.66391  757.12286  753.58643  751.09683  747.54155  742.82658  736.37962  728.18448  718.16759  704.74879  684.36654  658.68626  639.84348
  86.00000  856.31922  849.88801  852.03373  851.36071  852.36680  852.34199  848.67620  847.45418  848.96259  851.24056  846.76464  844.06830  842.57528  842.71405  840.70647  839.89885  838.24072  837.04583  836.77511  835.45401  835.24514  834.06813  833.58134  832.64936  831.61968  831.75104  830.26233  828.35613  825.11694  821.03414  817.61156  815.52918  813.26993  812.06791  809.15799  804.04168  797.50938  790.48265  784.79200  778.67165  774.34483  770.58103  767.01293  763.94260  761.57212  759.16500  756.29478  752.68059  749.08874  746.54335  742.92074  738.16327  731.69963  723.52392  713.53352  700.12122  679.75546  654.17045  635.51433
  87.00000  850.25428  843.87759  845.90181  845.25184  846.18537  846.14308  842.50133  841.32858  842.87097  845.10382  840.73167  838.08761  836.63841  836.80339  834.82513  834.06056  832.44146  831.28415  831.04725  829.76078  829.60243  828.46943  828.04599  827.18380  826.23678  826.44648  825.05814  823.27169  820.14574  816.20590  812.91492  810.94141  808.81242  807.71323  804.92403  799.92217  793.48540  786.53569  780.87347  774.74402  770.42460  766.63538  763.02951  759.91918  757.48228  755.00228  752.05847  748.37265  744.72601  742.12537  738.43708  733.63785  727.15774  719.00133  709.03664  695.63102  675.28073  649.78585  631.30487
  88.00000  844.35486  838.03210  839.93684  839.31234  840.17853  840.12035  836.50254  835.37452  836.94797  839.13437  834.86456  832.27403  830.86933  831.06179  829.11445  828.39284  826.81302  825.69333  825.48974  824.23754  824.12809  823.03780  822.67497  821.87988  821.01173  821.29586  820.00400  818.33238  815.31549  811.51353  808.34921  806.48054  804.47716  803.47743  800.80578  795.91660  789.57443  782.70148  777.06854  770.93204  766.62058  762.80727  759.16506  756.01579  753.51397  750.96295  747.94719  744.19118  740.49031  737.83482  734.08234  729.24198  722.74551  714.60808  704.66813  691.26924  670.93333  645.52368  627.20689
  89.00000  838.61121  832.34189  834.12949  833.53245  834.33617  834.26344  830.66929  829.58172  831.18324  833.32194  829.15317  826.61740  825.25788  825.47892  823.56412  822.88534  821.34515  820.26316  820.09248  818.87437  818.81233  817.76369  817.45904  816.72856  815.93589  816.29087  815.09185  813.53053  810.61887  806.95003  803.90779  802.14018  800.25805  799.35451  796.79721  792.01886  785.77026  778.97371  773.37075  767.22911  762.92604  759.08982  755.41259  752.22531  749.66006  747.03976  743.95362  740.12882  736.37419  733.66413  729.84883  724.96789  718.45506  710.33609  700.41979  687.02759  666.70493  641.37581  623.21281
  90.00000  833.01420  826.79795  828.47100  827.90301  828.64881  828.56263  824.99171  823.94062  825.56717  827.65697  823.58807  821.10827  819.79456  820.04518  818.16449  817.52843  816.02822  814.98411  814.84600  813.66195  813.64597  812.63816  812.38950  811.72137  811.00113  811.42364  810.31410  808.85888  806.04896  802.50881  799.58439  797.91432  796.14927  795.33877  792.89267  788.22324  782.06708  775.34640  769.77404  763.62901  759.33461  755.47661  751.76556  748.54108  745.91383  743.22594  740.07089  736.17865  732.37068  729.60621  725.72936  720.80830  714.27901  706.17785  696.28399  682.89833  662.58777  637.33468  619.31563
  91.00000  827.55530  821.39183  822.95314  822.41546  823.10758  823.00886  819.46059  818.44225  820.09077  822.13053  818.16045  815.73778  814.47050  814.75159  812.90655  812.31308  810.85325  809.84723  809.74142  808.59156  808.62040  807.65280  807.45820  806.85032  806.19977  806.68676  805.66355  804.31057  801.59923  798.18361  795.37306  793.79722  792.14533  791.42482  789.08677  784.52430  778.45940  771.81395  766.27270  760.12590  755.84035  751.96159  748.21780  744.95687  742.26901  739.51511  736.29257  732.33417  728.47322  725.65443  721.71718  716.75638  710.21046  702.12635  692.25363  678.87429  658.57468  633.39331  615.50891
  92.00000  822.22653  816.11564  817.56819  817.06177  817.70418  817.59361  814.06733  813.07825  814.74567  816.73430  812.86211  810.49770  809.27742  809.58976  807.78189  807.23086  805.81184  804.84418  804.77046  803.65501  803.72755  802.79970  802.65744  802.10792  801.52461  802.07327  801.13347  799.87916  797.26351  793.96854  791.26818  789.78349  788.24102  787.60756  785.37445  780.91695  774.94204  768.37109  762.86136  756.71429  752.43767  748.53909  744.76356  741.46680  738.71969  735.90128  732.61262  728.58930  724.67568  721.80257  717.80599  712.80578  706.24298  698.17506  688.32210  674.94879  654.65896  629.54523  611.78665
  93.00000  817.02043  810.96198  812.30889  811.83440  812.43082  812.30893  808.80387  807.84081  809.52405  811.46056  807.68540  805.38031  804.20758  804.55188  802.78264  802.27390  800.89613  799.96712  799.92535  798.84463  798.95985  798.07145  797.98000  797.48709  796.96884  797.57657  796.71746  795.55852  793.03594  789.85799  787.26441  785.86799  784.43140  783.88214  781.75092  777.39635  771.51012  765.01284  759.53497  753.38902  749.12130  745.20378  741.39741  738.06539  735.26034  732.37887  729.02538  724.93833  720.97230  718.04480  713.98987  708.95053  702.37055  694.31787  684.48326  671.11563  650.83443  625.78444  608.14336
  94.00000  811.93000  805.92392  807.16844  806.72631  807.28019  807.14738  803.66269  802.72262  804.41865  806.30207  802.62316  800.37843  799.25377  799.63063  797.90146  797.43484  796.09878  795.20874  795.19880  794.15323  794.31019  793.46109  793.41910  792.98120  792.52606  793.19048  792.40952  791.34292  788.91102  785.84669  783.35671  782.04586  780.71181  780.24400  778.21163  773.95796  768.15906  761.73453  756.28878  750.14523  745.88631  741.95066  738.11429  734.74749  731.88577  728.94260  725.52553  721.37589  717.35769  714.37567  710.26329  705.18504  698.58756  690.54910  680.73137  667.36905  647.09533  622.10537  604.57393
  95.00000  806.94873  800.99500  802.14043  801.73089  802.24547  802.10200  798.63677  797.71686  799.42267  801.25211  797.66875  795.48535  794.40925  794.81920  793.13148  792.70679  791.41291  790.56219  790.58400  789.57407  789.77192  788.96206  788.96835  788.58399  788.19024  788.90913  788.20397  787.22689  784.88352  781.92963  779.54031  778.31250  777.07780  776.68880  774.75231  770.59748  764.88451  758.53177  753.11833  746.97836  742.72809  738.77503  734.90942  731.50827  728.59112  725.58754  722.10807  717.89695  713.82679  710.79008  706.62109  701.50412  694.88875  686.86344  677.06111  663.70368  643.43633  618.50287  601.07367
  96.00000  802.07051  796.16914  797.21888  796.84195  797.32023  797.16626  793.71954  792.81714  794.52978  796.30442  792.81594  790.69482  789.66771  790.11123  788.46627  788.08334  786.83210  786.02106  786.07458  785.10082  785.33878  784.56822  784.62174  784.28959  783.95568  784.72703  784.09546  783.20533  780.94852  778.10209  775.81069  774.66356  773.52520  773.21245  771.36890  767.31084  761.68239  755.40042  750.01943  743.88412  739.64227  735.67250  731.77833  728.34320  725.37181  722.30907  718.76834  714.49680  710.37484  707.28323  703.05841  697.90286  691.26920  683.25595  673.46752  660.11454  639.85246  614.97218  597.63821
  97.00000  797.28963  791.44066  792.39813  792.05368  792.49849  792.33406  788.90486  788.01750  789.73407  791.45314  788.05895  786.00097  785.02328  785.50075  783.89984  783.55848  782.35034  781.57935  781.66456  780.72756  781.00491  780.27381  780.37364  780.09247  779.81704  780.63897  780.07895  779.27337  777.10134  774.35958  772.16357  771.09490  770.05001  769.81104  768.05756  764.09422  758.54886  752.33658  746.98812  740.85847  736.62477  732.63891  728.71683  725.24803  722.22356  719.10284  715.50195  711.17101  706.99739  703.85065  699.57072  694.37671  687.72434  679.72201  669.94599  656.59699  636.33914  611.50887  594.26355
  98.00000  792.60074  786.80426  787.67289  787.36064  787.77461  787.59969  784.18698  783.31237  785.03006  786.69283  783.39236  781.39837  780.47046  780.98223  779.42658  779.12658  777.96201  777.23143  777.34836  776.44873  776.76482  776.07338  776.21872  775.98742  775.76927  776.64005  776.14967  775.42644  773.33758  770.69789  768.59489  767.60261  766.64848  766.48092  764.81468  760.94401  755.48029  749.33659  744.02068  737.89764  733.67175  729.67040  725.72097  722.21877  719.14236  715.96478  712.30477  707.91542  703.69028  700.48815  696.15376  690.92140  684.24986  676.25731  666.49221  653.14674  632.89207  608.10883  590.94596
  99.00000  787.99885  782.25496  783.03820  782.75773  783.14331  782.95781  779.56055  778.69653  780.41259  782.01840  778.81114  776.88190  776.00414  776.55048  775.04126  774.78241  773.66185  772.97207  773.12072  772.25912  772.61335  771.96185  772.15202  771.96953  771.80761  772.72567  772.30314  771.66022  769.65308  767.11300  765.10082  764.18299  763.31704  763.21859  761.63684  757.85679  752.47325  746.39701  741.11364  734.99804  730.77962  726.76331  722.78705  719.25170  716.12443  712.89106  709.17293  704.72612  700.44958  697.19177  692.80356  687.53292  680.84178  672.85785  663.10219  649.75976  629.50731  604.76828  587.68202
 100.00000  783.47929  777.78809  778.48938  778.24018  778.59967  778.40340  775.02054  774.16513  775.87687  777.42514  774.31058  772.44680  771.61951  772.20066  770.73897  770.52106  769.44494  768.79633  768.97675  768.15384  768.54567  767.93444  768.16882  768.03422  767.92760  768.89147  768.53512  767.97063  766.04389  763.60113  761.67773  760.83252  760.05231  760.02075  758.52079  754.82935  749.52453  743.51458  738.26370  732.15634  727.94499  723.91421  719.91161  716.34331  713.16622  709.87811  706.10283  701.59947  697.27163  693.95785  689.51640  684.20753  677.49633  669.51987  659.77221  646.43234  626.18115  601.48367  584.46856
 101.00000  779.03767  773.39931  774.02205  773.80351  774.13904  773.93179  770.56227  769.71361  771.41845  772.90861  769.88628  768.08865  767.31211  767.92824  766.51514  766.33794  765.30669  764.69961  764.91186  764.12831  764.55722  763.98665  764.26473  764.17713  764.12501  765.13334  764.84161  764.35383  762.50629  760.15870  758.32217  757.54789  756.85108  756.88429  755.46347  751.85864  746.63109  740.68626  735.46778  729.36937  725.16469  721.11990  717.09140  713.49032  710.26443  706.92255  703.09104  698.53203  694.15298  690.78293  686.28879  680.94174  674.21002  666.23988  656.49879  643.16102  622.91019  598.25175  581.30264
 102.00000  774.66991  769.08451  769.63208  769.44351  769.75708  769.53859  766.18136  765.33771  767.03315  768.46470  765.53415  763.80329  763.07775  763.72900  762.36548  762.22878  761.24279  760.67760  760.92173  760.17823  760.64377  760.11425  760.43558  760.39420  760.39586  761.44741  761.21886  760.80617  759.03676  756.78232  755.03090  754.32594  753.71033  753.80625  752.46199  748.94179  743.79006  737.90916  732.72298  726.63418  722.43573  718.37735  714.32336  710.68964  707.41594  704.02123  700.13438  695.52057  691.09040  687.66378  683.11746  677.73227  670.97958  663.01462  653.27871  639.94256  619.69124  595.06950  578.18155
 103.00000  770.37218  764.83989  765.31562  765.15626  765.44973  765.21969  761.87369  761.03346  762.71708  764.08957  761.25036  759.58683  758.91252  759.59899  758.28600  758.18955  757.24923  756.72627  757.00234  756.29958  756.80130  756.31328  756.67747  756.68158  756.73642  757.83004  757.66331  757.32423  755.63198  753.46878  751.80082  751.16368  750.62717  750.78382  749.51361  746.07610  740.99875  735.18059  730.02655  723.94798  719.75530  715.68373  711.60461  707.93838  704.61783  701.17118  697.22985  692.56207  688.08086  684.59736  679.99935  674.57606  667.80194  659.84104  650.10897  636.77398  616.52136  591.93409  575.10278
 104.00000  766.14090  760.66185  761.06901  760.93806  761.21316  760.97124  757.63545  756.79712  758.46661  759.77965  757.03135  755.43567  754.81278  755.53454  754.27295  754.21652  753.32222  752.84183  753.14992  752.48856  753.02608  752.58001  752.98675  753.03566  753.14315  754.27779  754.17159  753.90475  752.28879  750.21506  748.62902  748.05829  747.59888  747.81435  746.61575  743.25901  738.25461  732.49799  727.37594  721.30815  717.12079  713.03638  708.93247  705.23383  701.86734  698.36963  694.37464  689.65369  685.12152  681.58085  676.93161  671.47022  664.67424  656.71631  646.98676  633.65249  613.39779  588.84294  572.06402
 105.00000  761.97270  756.54705  756.88885  756.78545  757.04380  756.78965  753.46305  752.62523  754.27835  755.53159  752.87379  751.34643  750.77513  751.53220  750.32284  750.30619  749.45826  749.02075  749.36093  748.74164  749.31459  748.91094  749.35995  749.45305  749.61273  750.78741  750.74056  750.54469  749.00422  747.01828  745.51273  745.00709  744.62288  744.89534  743.76595  740.48810  735.55525  729.85898  724.76873  718.71223  714.52971  710.43280  706.30442  702.57345  699.16192  695.61397  691.56612  686.79277  682.20971  678.61157  673.91154  668.41209  661.59382  653.63778  643.90948  630.57549  610.31800  585.79361  569.06312
 106.00000  757.86446  752.49233  752.77193  752.69518  752.93830  752.67155  749.35312  748.51454  750.14915  751.34227  748.77455  747.31594  746.79636  747.58875  746.43239  746.45527  745.65403  745.25971  745.63205  745.05549  745.66352  745.30278  745.79382  745.93053  746.14202  747.35584  747.36723  747.24115  745.77546  743.87572  742.44933  742.00755  741.69673  742.02441  740.96191  737.76109  732.89839  727.26130  722.20264  716.15791  711.97974  707.87065  703.71808  699.95486  696.49915  692.90175  688.80180  683.97681  679.34293  675.68704  670.93664  665.39915  658.55817  650.60297  640.87470  627.54058  607.27962  582.78388  566.09810
 107.00000  753.81323  748.49477  748.71524  748.66422  748.89351  748.61377  745.30254  744.46198  746.07606  747.20880  744.73075  743.34126  742.87351  743.70119  742.59856  742.66072  741.90647  741.55563  741.96019  741.42700  742.06979  741.75243  742.28532  742.46512  742.72808  743.98021  744.04878  743.99140  742.59985  740.78483  739.43635  739.05725  738.81811  739.19930  738.20144  735.07584  730.28192  724.70282  719.67553  713.64300  709.46871  705.34772  701.17123  697.37582  693.87676  690.23067  686.07936  681.20345  676.51884  672.80493  668.00455  662.42904  655.56496  647.60958  637.88016  624.54551  604.28045  579.81166  563.16712
 108.00000  749.81627  744.55159  744.71594  744.68971  744.90648  744.61336  741.30838  740.46473  742.05632  743.12845  740.73967  739.41963  739.00380  739.86670  738.81847  738.91965  738.21268  737.90558  738.34244  737.85323  738.53049  738.25699  738.83157  739.05396  739.36812  740.65780  740.78255  740.79286  739.47488  737.74317  736.47145  736.15392  735.98482  736.41788  735.48247  732.43031  727.70381  722.18155  717.18540  711.16546  706.99456  702.86194  698.66177  694.83423  691.29263  687.59858  683.39663  678.47050  673.73523  669.96304  665.11308  659.49956  652.61199  644.65545  634.92376  621.58819  601.31845  576.87503  560.26848
 109.00000  745.87100  740.66022  740.77137  740.76897  740.97445  740.66754  737.36788  736.52012  738.08735  739.09870  736.79877  735.54847  735.18461  736.08268  735.08945  735.22940  734.56996  734.30685  734.77606  734.33145  735.04288  734.81372  735.42987  735.69439  736.05951  737.38603  737.56605  737.64311  736.39816  734.74844  733.55238  733.29540  733.19478  733.67813  732.80303  729.82259  725.16219  719.69561  714.73036  708.72336  704.55538  700.41138  696.18775  692.32812  688.74476  685.00346  680.75155  675.77589  670.99005  667.15932  662.26015  656.60866  649.69723  641.73858  632.00352  618.66668  598.39172  573.97220  557.40062
 110.00000  741.97500  736.81824  736.87902  736.89949  737.09483  736.77373  733.47848  732.62566  734.16677  735.11719  732.90570  731.72538  731.41353  732.34665  731.40901  731.58746  730.97579  730.75690  731.25852  730.85907  731.60442  731.42008  732.07767  732.38391  732.79980  734.16250  734.39691  734.53984  733.36744  731.79847  730.67706  730.47965  730.44602  730.97814  730.16129  727.25086  722.65525  717.24323  712.30862  706.31489  702.14935  697.99420  693.74733  689.85565  686.23128  682.44341  678.14221  673.11768  668.28134  664.39186  659.44383  653.75440  646.81877  638.85709  629.11764  615.77917  595.49849  571.10151  554.56208
 111.00000  738.12603  733.02337  733.03655  733.07893  733.26517  732.92949  729.63778  728.77901  730.29232  731.18170  729.05825  727.94810  727.68828  728.65634  727.77479  727.99149  727.42779  727.25334  727.78741  727.43369  728.21269  728.07363  728.77260  729.12016  729.58665  730.98491  731.27289  731.48088  730.38061  728.89120  727.84349  727.70473  727.73667  728.31609  727.55550  724.71342  720.18132  714.82273  709.91851  703.93835  699.77477  695.60870  691.33879  687.41508  683.75043  679.91664  675.56680  670.49405  665.60731  661.65885  656.66232  650.93498  643.97481  636.00923  626.26439  612.92398  592.63712  568.26142  551.75151
 112.00000  734.32196  729.27349  729.24175  729.30506  729.48320  729.13254  725.84352  724.97799  726.46192  727.29018  725.25434  724.21455  724.00672  725.00959  724.18461  724.43928  723.92375  723.79393  724.36051  724.05303  724.86545  724.77212  725.51239  725.90090  726.41786  727.85113  728.19189  728.46418  727.43566  726.02468  725.04978  724.96879  725.06496  725.69027  724.98399  722.20864  717.73881  712.43256  707.55847  701.59213  697.43006  693.25325  688.96049  685.00479  681.30057  677.42149  673.02363  667.90327  662.96623  658.95861  653.91391  648.14870  641.16368  633.19335  623.44220  610.09955  589.80610  565.45049  548.96766
 113.00000  730.56082  725.56662  725.49253  725.57581  725.74677  725.38074  722.09361  721.22057  722.67361  723.44071  721.49206  720.52274  720.36688  721.40440  720.63643  720.92880  720.46160  720.37658  720.97569  720.71497  721.56058  721.51341  722.29494  722.72404  723.29136  724.75911  725.15194  725.48781  724.53067  723.19708  722.29414  722.27011  722.42921  723.09906  722.44520  719.73501  715.32623  710.07124  705.22699  699.27474  695.11372  690.92637  686.61091  682.62325  678.88014  674.95638  670.51110  665.34376  660.35651  656.28954  651.19701  645.39399  638.38382  630.40794  620.64958  607.30441  587.00399  562.66740  546.20938
 114.00000  726.84075  721.90087  721.78695  721.88924  722.05388  721.67210  718.38608  717.50483  718.92556  719.63149  717.76960  716.87084  716.76690  717.83891  717.12831  717.45813  717.03940  716.99933  717.63101  717.41751  718.29609  718.29550  719.11824  719.58762  720.20522  721.70696  722.15114  722.54994  721.66386  720.40664  719.57488  719.60703  719.82784  720.54092  719.93766  717.29109  712.94215  707.73737  702.92271  696.98475  692.82433  688.62661  684.28863  680.26904  676.48770  672.51985  668.02774  662.81400  657.77664  653.65018  648.51014  642.66935  635.63377  627.65157  617.88516  604.53720  584.22949  559.91091  543.47560
 115.00000  723.16002  718.27450  718.12317  718.24353  718.40265  718.00474  714.71907  713.82898  715.21606  715.86084  714.08528  713.25713  713.20503  714.31135  713.65848  714.02545  713.65532  713.66034  714.32461  714.15879  715.07012  715.11652  715.98043  716.48978  717.15758  718.69286  719.18774  719.64883  718.83351  717.65172  716.89040  716.97799  717.25932  718.01438  717.45996  714.87551  710.58525  705.42965  700.64429  694.72084  690.56057  686.35266  681.99231  677.94081  674.12188  670.11050  665.57213  660.31257  655.22523  651.03912  645.85189  639.97340  632.91216  624.92290  615.14765  601.79667  581.48136  557.17988  540.76532
 116.00000  719.51699  714.68587  714.49945  714.63696  714.79129  714.37690  711.09086  710.19134  711.54352  712.12720  710.43752  709.68000  709.67965  710.82009  710.22524  710.62911  710.30766  710.35788  711.05475  710.93703  711.88091  711.97468  712.87974  713.42877  714.14671  715.71511  716.26006  716.78286  716.03803  714.93076  714.23917  714.38151  714.72224  715.51807  715.01079  712.48701  708.25428  703.14685  698.39051  692.48174  688.32121  684.10325  679.72068  675.63730  671.78141  667.72704  663.14297  657.83814  652.70094  648.45507  643.22097  637.30485  630.21770  622.22069  612.43586  599.08162  578.75846  554.47324  538.07762
 117.00000  715.91013  711.13343  710.91418  711.06791  711.21816  710.78693  707.49984  706.59036  707.90644  708.42910  706.82485  706.13795  706.18924  707.36359  706.82703  707.26751  706.99484  707.09036  707.81983  707.75060  708.72683  708.86833  709.81452  710.40294  711.17099  712.77210  713.36653  713.95049  713.27590  712.24228  711.61976  711.81618  712.21525  713.05067  712.58888  710.12435  705.94806  700.88781  696.16022  690.26629  686.10507  681.87722  677.47256  673.35734  669.46507  665.36825  660.73902  655.38947  650.20253  645.89679  640.61613  634.66246  627.54920  619.54378  609.74865  596.39098  576.05973  551.79000  535.41165
 118.00000  712.33802  707.61575  707.36582  707.53489  707.68169  707.23328  703.94449  703.02455  704.30344  704.76517  703.24590  702.62957  702.73237  703.94043  703.46237  703.93919  703.71535  703.85624  704.61831  704.59794  705.60632  705.79590  706.78320  707.41075  708.22887  709.86232  710.50566  711.15025  710.54567  709.58488  709.03081  709.28068  709.73705  710.61096  710.19306  707.78640  703.66545  698.65142  693.95231  688.07336  683.91106  679.67345  675.24685  671.09981  667.17174  663.03299  658.35911  652.96538  647.72884  643.36315  638.03624  632.04510  624.90554  616.89108  607.08501  593.72370  573.38418  549.12924  532.76661
 119.00000  708.79932  704.13146  703.85294  704.03646  704.18041  703.71451  700.42339  699.49254  700.73320  701.13414  699.69937  699.15355  699.30771  700.54925  700.12989  700.64276  700.46779  700.65412  701.44877  701.47760  702.51794  702.75592  703.78431  704.45074  705.31889  706.98435  707.67605  708.38078  707.84598  706.95723  706.47102  706.77374  707.28643  708.19774  707.82220  705.47208  701.40542  696.43668  691.76575  685.90192  681.73815  677.49092  673.04249  668.86366  664.90037  660.72018  656.00217  650.56478  645.27877  640.85307  635.48021  629.45170  622.28566  614.26158  604.44394  591.07885  570.73089  546.49011  530.14177
 120.00000  705.29276  700.67929  700.37418  700.57131  700.71295  700.22925  696.93520  695.99304  697.19450  697.53480  696.18407  695.70865  695.91400  697.18880  696.82829  697.37694  697.25086  697.48267  698.30987  698.38820  699.46032  699.74701  700.81647  701.52153  702.43970  704.13682  704.87637  705.64077  705.17554  704.35809  703.93916  704.29417  704.86224  705.80992  705.47524  703.18037  699.16698  694.24260  689.59960  683.75099  679.58537  675.32863  670.85850  666.64794  662.64996  658.42881  653.66717  648.18662  642.85129  638.36554  632.94704  626.88125  619.68858  611.65432  601.82455  588.45553  568.09900  543.87181  527.53645
 121.00000  701.81717  697.25805  696.92827  697.13816  697.27803  696.77622  693.47869  692.52485  693.68621  693.96604  692.69886  692.29371  692.55008  693.85790  693.55637  694.14052  694.06332  694.34063  695.20036  695.32848  696.43218  696.76786  697.87837  698.62184  699.58998  701.31847  702.10538  702.92900  702.53315  701.78627  701.43409  701.84084  702.46338  703.44644  703.15119  700.91029  696.94917  692.06828  687.45292  681.61965  677.45180  673.18568  668.69398  664.45170  660.41957  656.15794  651.35315  645.82993  640.44545  635.89961  630.43578  624.33282  617.11338  609.06843  599.22598  585.85291  565.48771  541.27359  524.95002
 122.00000  698.37144  693.86662  693.51401  693.73586  693.87442  693.35423  690.05268  689.08682  690.20725  690.42680  689.24269  688.90765  689.21486  690.55546  690.31298  690.93235  690.90403  691.22683  692.11905  692.29722  693.43233  693.81725  694.96880  695.75043  696.76854  698.52810  699.36188  700.24430  699.91764  699.24064  698.95471  699.41268  700.08882  701.10629  700.84909  698.66095  694.75113  689.91286  685.32487  679.50702  675.33660  671.06121  666.54805  662.27411  658.20833  653.90667  649.05920  643.49381  638.06033  633.45440  627.94553  621.80552  614.55920  606.50306  596.64745  583.27022  562.89629  538.69478  522.38187
 123.00000  694.95453  690.50395  690.13027  690.36329  690.50099  689.96216  686.65609  685.67789  686.75663  686.91610  685.81457  685.54947  685.90731  687.28044  687.09708  687.75138  687.77189  688.14019  689.06485  689.29329  690.45962  690.89403  692.08658  692.90617  693.97422  695.76456  696.64477  697.58558  697.32792  696.72015  696.49997  697.00866  697.73758  698.78854  698.56804  696.43148  692.57202  687.77552  683.21464  677.41228  673.23896  668.95441  664.41990  660.11435  656.01542  651.67418  646.78448  641.17739  635.69508  631.02907  625.47546  619.29853  612.02522  603.95746  594.08821  580.70674  560.32402  536.13472  519.83147
 124.00000  691.56546  687.16904  686.77598  687.01942  687.15666  686.59894  683.28787  682.29707  683.33340  683.43304  682.41357  682.21821  682.62646  684.03187  683.90765  684.59661  684.66590  685.07968  686.03671  686.31563  687.51301  687.99711  689.23065  690.08797  691.20593  693.02680  693.95299  694.95179  694.76297  694.22378  694.06888  694.62783  695.40872  696.49228  696.30720  694.22107  690.41104  685.65552  681.12148  675.33468  671.15812  666.86451  662.30876  657.97165  653.84006  649.45966  644.52820  638.87987  633.34891  628.62284  623.02480  616.81108  609.51070  601.43088  591.54759  578.16179  557.77027  533.59281  517.29830
 125.00000  688.20331  683.86097  683.45016  683.70326  683.84044  683.26359  679.94707  678.94343  679.93670  679.97673  679.03883  678.91298  679.37142  680.80885  680.74378  681.46711  681.58511  682.04431  683.03367  683.36325  684.59148  685.12548  686.39996  687.29481  688.46266  690.31381  691.28556  692.34197  692.22181  691.75059  691.66052  692.26926  693.10137  694.21666  694.06576  692.02895  688.26747  683.55212  679.04466  673.27348  669.09337  664.79080  660.21393  655.84531  651.68152  647.26240  642.28960  636.60049  631.02106  626.23498  620.59280  614.34244  607.01493  598.92265  589.02493  575.63476  555.23444  531.06851  514.78189
 126.00000  684.86724  680.57887  680.15185  680.41390  680.55136  679.95518  676.63279  675.61607  676.56568  676.54639  675.68952  675.63295  676.14133  677.61053  677.60457  678.36200  678.52863  679.03320  680.05480  680.43519  681.69411  682.27817  683.59356  684.52572  685.74343  687.62462  688.64151  689.75518  689.70351  689.29967  689.27400  689.93209  690.81468  691.96089  691.84297  689.85439  686.14060  681.46465  676.98351  671.22800  667.04405  662.73261  658.13473  653.73466  649.53912  645.08168  640.06799  634.33853  628.71083  623.86481  618.17879  611.89192  604.53723  596.43214  586.51964  573.12505  552.71596  528.56128  512.28179
